wavenumber	20ºC	30°C	40°C	50°C	60°C	70°C
19998,3995	0,00655	0,00194	0,00126	0,00123	7,97894E-4	0
19987,99624	0,00658	0,00183	0,00123	9,16699E-4	6,34817E-4	2,9856E-5
19977,60412	0,00658	0,00172	0,00132	5,59364E-4	5,97741E-4	1,25581E-4
19967,22314	0,00655	0,00166	0,00152	2,41122E-4	6,9532E-4	2,86423E-4
19956,85328	0,0065	0,00165	0,00179	3,69746E-5	9,04905E-4	5,27257E-4
19946,49451	0,00643	0,00171	0,00208	0	0,00118	8,7573E-4
19936,14682	0,00636	0,00182	0,00237	1,4954E-4	0,00144	0,00136
19925,8102	0,00629	0,00199	0,0026	4,66398E-4	0,00162	0,00201
19915,48462	0,00622	0,00217	0,00278	8,96293E-4	0,00166	0,00283
19905,17007	0,00615	0,00233	0,0029	0,00136	0,00153	0,00378
19894,86653	0,00609	0,00243	0,00298	0,00177	0,00125	0,00481
19884,57398	0,00602	0,00246	0,00304	0,00206	8,60334E-4	0,00585
19874,2924	0,00594	0,00239	0,0031	0,00218	4,58188E-4	0,00681
19864,02179	0,00586	0,00224	0,00317	0,00211	1,39364E-4	0,00763
19853,76211	0,00575	0,00203	0,00324	0,00188	0	0,00826
19843,51335	0,00564	0,00178	0,0033	0,00157	1,11604E-4	0,00871
19833,2755	0,00552	0,00155	0,00332	0,00124	5,0579E-4	0,009
19823,04853	0,00541	0,00137	0,00328	9,88068E-4	0,00117	0,00921
19812,83243	0,00529	0,00128	0,00318	8,83971E-4	0,00204	0,00942
19802,62719	0,00518	0,00131	0,00304	9,69481E-4	0,00302	0,00971
19792,43278	0,00507	0,00144	0,00286	0,00125	0,00402	0,01014
19782,24919	0,00495	0,00168	0,00269	0,0017	0,00492	0,01073
19772,0764	0,00482	0,00199	0,00255	0,00225	0,00565	0,01146
19761,91439	0,00467	0,00233	0,00247	0,00283	0,00617	0,01229
19751,76315	0,0045	0,00267	0,00244	0,00337	0,00649	0,01313
19741,62266	0,00431	0,00296	0,00246	0,00379	0,00662	0,01393
19731,4929	0,0041	0,00317	0,0025	0,00406	0,00664	0,01461
19721,37386	0,0039	0,00327	0,00252	0,00416	0,0066	0,01513
19711,26551	0,00371	0,00326	0,0025	0,00411	0,00657	0,01549
19701,16785	0,00355	0,00314	0,00242	0,00393	0,00659	0,01571
19691,08085	0,00341	0,00292	0,00227	0,00368	0,00667	0,01583
19681,0045	0,00331	0,00263	0,00209	0,0034	0,00682	0,0159
19670,93878	0,00325	0,0023	0,00191	0,00315	0,00701	0,01599
19660,88367	0,00323	0,00198	0,00176	0,00294	0,00719	0,01613
19650,83916	0,00324	0,00169	0,00169	0,00281	0,00735	0,01636
19640,80523	0,0033	0,00146	0,00173	0,00276	0,00746	0,01671
19630,78187	0,00338	0,0013	0,00189	0,00278	0,00751	0,01718
19620,76905	0,00349	0,00123	0,00216	0,00287	0,0075	0,01777
19610,76676	0,00362	0,00123	0,00251	0,003	0,00747	0,01845
19600,77498	0,00375	0,0013	0,00292	0,00317	0,00743	0,01922
19590,79371	0,00386	0,00142	0,00332	0,00335	0,0074	0,02002
19580,82291	0,00395	0,00158	0,00369	0,00354	0,00741	0,02082
19570,86258	0,004	0,00176	0,00399	0,00372	0,00745	0,02157
19560,91269	0,004	0,00194	0,00421	0,00387	0,0075	0,02221
19550,97324	0,00396	0,00213	0,00434	0,004	0,00755	0,02269
19541,0442	0,00388	0,00232	0,00438	0,00409	0,00758	0,02299
19531,12556	0,00377	0,0025	0,00435	0,00415	0,00757	0,02308
19521,2173	0,00366	0,00265	0,00427	0,00417	0,0075	0,02297
19511,31941	0,00356	0,00278	0,00417	0,00416	0,00739	0,02268
19501,43187	0,00349	0,00286	0,00406	0,00414	0,00723	0,02226
19491,55466	0,00347	0,00288	0,00396	0,00411	0,00707	0,02177
19481,68777	0,00349	0,00284	0,0039	0,00409	0,00694	0,02127
19471,83118	0,00355	0,00272	0,00386	0,00408	0,00686	0,02083
19461,98488	0,00365	0,00255	0,00387	0,00407	0,00687	0,02048
19452,14884	0,00376	0,00232	0,0039	0,00407	0,00698	0,02025
19442,32306	0,00389	0,00206	0,00396	0,00404	0,00718	0,02015
19432,50751	0,00401	0,0018	0,00403	0,00397	0,00747	0,02018
19422,70219	0,00412	0,00155	0,00409	0,00386	0,00783	0,0203
19412,90707	0,00422	0,00134	0,00413	0,0037	0,00822	0,02049
19403,12214	0,0043	0,00117	0,00415	0,00348	0,0086	0,02073
19393,34738	0,00438	0,00107	0,00415	0,00325	0,00893	0,021
19383,58279	0,00443	0,00102	0,00414	0,00301	0,00919	0,02128
19373,82833	0,00448	0,00102	0,00411	0,00283	0,00934	0,02156
19364,084	0,0045	0,00109	0,0041	0,00272	0,00938	0,02184
19354,34977	0,00451	0,00121	0,00412	0,00272	0,00932	0,02212
19344,62565	0,0045	0,00138	0,00416	0,00284	0,00918	0,02239
19334,9116	0,00447	0,00162	0,00422	0,00307	0,00899	0,02268
19325,20761	0,00443	0,0019	0,00431	0,00337	0,0088	0,02297
19315,51367	0,00438	0,00224	0,0044	0,00371	0,00867	0,02329
19305,82977	0,00432	0,00259	0,00447	0,00402	0,00865	0,02364
19296,15588	0,00426	0,00296	0,00453	0,00427	0,00877	0,02403
19286,49199	0,00419	0,0033	0,00457	0,0044	0,00904	0,02447
19276,83809	0,00411	0,0036	0,00459	0,00443	0,00946	0,02493
19267,19415	0,00402	0,00383	0,00461	0,00435	0,00999	0,02541
19257,56017	0,00391	0,00399	0,00465	0,00421	0,01055	0,02585
19247,93613	0,00381	0,00407	0,00472	0,00407	0,01108	0,02622
19238,32201	0,00371	0,00409	0,00485	0,00398	0,01151	0,02647
19228,7178	0,00364	0,00406	0,00503	0,00402	0,01179	0,02655
19219,12349	0,00364	0,004	0,00525	0,00421	0,0119	0,02646
19209,53905	0,00372	0,00392	0,0055	0,00456	0,01186	0,02618
19199,96447	0,0039	0,00385	0,00573	0,00505	0,01172	0,02574
19190,39975	0,00418	0,00378	0,00591	0,00565	0,01154	0,02519
19180,84485	0,00455	0,00372	0,00603	0,00629	0,01143	0,02459
19171,29977	0,00498	0,00366	0,00607	0,00691	0,01143	0,02401
19161,76449	0,00542	0,00361	0,00603	0,00745	0,0116	0,0235
19152,239	0,00582	0,00356	0,00594	0,00785	0,01194	0,02313
19142,72328	0,00614	0,00352	0,00584	0,00811	0,01242	0,02293
19133,21732	0,00633	0,00352	0,00577	0,0082	0,01298	0,02291
19123,7211	0,00637	0,00357	0,00576	0,00815	0,01353	0,02307
19114,23461	0,00629	0,0037	0,00586	0,00799	0,01402	0,02342
19104,75783	0,0061	0,00391	0,00607	0,00776	0,01439	0,02393
19095,29074	0,00584	0,0042	0,0064	0,00751	0,01462	0,02459
19085,83334	0,00559	0,00456	0,00681	0,00727	0,01472	0,0254
19076,3856	0,00537	0,00497	0,00727	0,0071	0,01476	0,02632
19066,94752	0,00525	0,00539	0,00773	0,00702	0,01477	0,02733
19057,51908	0,00524	0,00578	0,00816	0,00707	0,01483	0,02839
19048,10025	0,00534	0,00611	0,00851	0,00725	0,01495	0,02943
19038,69104	0,00556	0,00634	0,00876	0,00757	0,01517	0,03039
19029,29142	0,00587	0,00648	0,0089	0,00801	0,01546	0,03119
19019,90138	0,00623	0,00652	0,00894	0,00853	0,01578	0,03178
19010,5209	0,00661	0,0065	0,00889	0,00909	0,01609	0,03214
19001,14997	0,00699	0,00644	0,00877	0,00962	0,01635	0,03225
18991,78858	0,00734	0,00638	0,0086	0,01007	0,01654	0,03217
18982,43671	0,00764	0,00636	0,00841	0,01037	0,01666	0,03198
18973,09434	0,00788	0,00641	0,00821	0,01051	0,01675	0,03176
18963,76147	0,00807	0,00654	0,00804	0,01047	0,01685	0,03162
18954,43807	0,0082	0,00675	0,00791	0,01029	0,017	0,03164
18945,12413	0,00829	0,007	0,00784	0,01002	0,01723	0,03187
18935,81965	0,00835	0,00727	0,00785	0,00973	0,01756	0,03231
18926,52459	0,00838	0,00752	0,00795	0,00949	0,01797	0,03292
18917,23896	0,00841	0,0077	0,00816	0,00936	0,01844	0,03366
18907,96273	0,00845	0,0078	0,00848	0,00939	0,01894	0,03442
18898,6959	0,0085	0,0078	0,00889	0,00958	0,01942	0,03515
18889,43844	0,00858	0,00773	0,00936	0,00992	0,01987	0,03578
18880,19034	0,00869	0,00761	0,00987	0,01036	0,02029	0,03628
18870,95159	0,00883	0,0075	0,01036	0,01087	0,02068	0,03667
18861,72218	0,009	0,00745	0,01081	0,0114	0,02107	0,03696
18852,50208	0,00917	0,0075	0,01117	0,01192	0,0215	0,0372
18843,2913	0,00936	0,00768	0,01145	0,01243	0,02197	0,0374
18834,0898	0,00955	0,00801	0,01164	0,01295	0,02251	0,0376
18824,89758	0,00973	0,00846	0,01178	0,01349	0,02307	0,03781
18815,71463	0,00992	0,00901	0,0119	0,01408	0,02364	0,03802
18806,54092	0,01012	0,00961	0,01206	0,01472	0,02416	0,03822
18797,37645	0,01034	0,01021	0,01229	0,01542	0,02461	0,03843
18788,22121	0,01057	0,01078	0,01264	0,01614	0,02496	0,03865
18779,07517	0,01084	0,01129	0,0131	0,01683	0,02519	0,03891
18769,93832	0,01113	0,01173	0,01367	0,01745	0,02532	0,03925
18760,81066	0,01145	0,01211	0,01432	0,01797	0,02539	0,03969
18751,69216	0,01179	0,01245	0,01499	0,01836	0,02545	0,04026
18742,58282	0,01215	0,01277	0,01564	0,01863	0,02553	0,04094
18733,48261	0,01253	0,0131	0,01622	0,01881	0,02567	0,0417
18724,39153	0,01292	0,01344	0,01671	0,01896	0,02591	0,04247
18715,30956	0,01334	0,01378	0,01709	0,01913	0,02626	0,04318
18706,23669	0,01377	0,01413	0,01738	0,01936	0,02672	0,04378
18697,17291	0,01423	0,01446	0,01763	0,01969	0,02729	0,04424
18688,11819	0,01471	0,01477	0,01786	0,02012	0,02794	0,04456
18679,07253	0,0152	0,01506	0,01814	0,02064	0,02868	0,04482
18670,03592	0,01569	0,01535	0,01848	0,02123	0,02949	0,0451
18661,00833	0,01618	0,01567	0,01893	0,02184	0,03034	0,04552
18651,98976	0,01664	0,01604	0,01947	0,02244	0,03122	0,04619
18642,9802	0,01708	0,0165	0,02009	0,02302	0,03211	0,04719
18633,97962	0,01749	0,01706	0,02076	0,02358	0,03296	0,04854
18624,98802	0,0179	0,01774	0,02144	0,02414	0,03376	0,05018
18616,00538	0,0183	0,01852	0,02211	0,02472	0,03448	0,05202
18607,03169	0,01873	0,01936	0,02273	0,02533	0,03511	0,05392
18598,06694	0,01921	0,02023	0,02329	0,02601	0,03565	0,0557
18589,11111	0,01976	0,02108	0,02381	0,02676	0,03613	0,05725
18580,16418	0,02039	0,02188	0,02431	0,02757	0,03659	0,05846
18571,22616	0,0211	0,02261	0,02482	0,02843	0,03709	0,05931
18562,29702	0,02187	0,02328	0,02539	0,02931	0,03768	0,05982
18553,37674	0,02268	0,02391	0,02606	0,03021	0,03841	0,0601
18544,46533	0,0235	0,02453	0,02684	0,03111	0,03931	0,06028
18535,56275	0,0243	0,02517	0,02776	0,03201	0,0404	0,06049
18526,66901	0,02508	0,02588	0,02881	0,0329	0,04165	0,06087
18517,78408	0,02581	0,02665	0,02995	0,0338	0,04303	0,0615
18508,90796	0,02651	0,02751	0,03117	0,03472	0,04448	0,06244
18500,04062	0,02719	0,02844	0,0324	0,03567	0,04594	0,06368
18491,18207	0,02789	0,02942	0,03361	0,03668	0,04736	0,06516
18482,33228	0,02864	0,03046	0,03478	0,03775	0,0487	0,06682
18473,49124	0,02948	0,03152	0,03589	0,03892	0,04994	0,06856
18464,65894	0,03041	0,0326	0,03695	0,0402	0,05108	0,0703
18455,83536	0,03147	0,03372	0,03798	0,04162	0,05215	0,07198
18447,0205	0,03264	0,03488	0,03902	0,04319	0,0532	0,07356
18438,21434	0,0339	0,03609	0,04012	0,04491	0,05427	0,07502
18429,41686	0,03522	0,03735	0,0413	0,04677	0,05542	0,07638
18420,62806	0,03657	0,03867	0,0426	0,04871	0,05671	0,07768
18411,84792	0,03792	0,04002	0,04403	0,05067	0,05814	0,07897
18403,07643	0,03924	0,04139	0,04557	0,05258	0,05974	0,08031
18394,31357	0,04051	0,04275	0,04719	0,05434	0,06147	0,08175
18385,55934	0,04175	0,04408	0,04887	0,05591	0,0633	0,08334
18376,81372	0,04299	0,04537	0,05058	0,05724	0,06517	0,0851
18368,07669	0,04425	0,04662	0,05228	0,05836	0,06706	0,08704
18359,34825	0,04559	0,04784	0,05399	0,05932	0,06892	0,08913
18350,62839	0,04703	0,04908	0,05571	0,0602	0,07075	0,09131
18341,91708	0,04861	0,05038	0,05747	0,06113	0,07257	0,09353
18333,21432	0,05034	0,05179	0,05931	0,06222	0,07442	0,0957
18324,52009	0,05223	0,05335	0,06125	0,06357	0,07636	0,09775
18315,83439	0,05425	0,0551	0,06334	0,06524	0,07846	0,09964
18307,1572	0,05637	0,05705	0,06556	0,06725	0,08076	0,10134
18298,4885	0,05858	0,05919	0,06792	0,06958	0,08329	0,10288
18289,82829	0,06083	0,06152	0,07037	0,07215	0,08601	0,10433
18281,17655	0,0631	0,064	0,0729	0,0749	0,0889	0,10581
18272,53327	0,0654	0,06659	0,07546	0,07773	0,09186	0,10744
18263,89843	0,06771	0,06926	0,07801	0,08059	0,09482	0,10936
18255,27204	0,07007	0,07197	0,08056	0,08343	0,09769	0,11168
18246,65406	0,07248	0,07471	0,0831	0,08624	0,10042	0,11446
18238,0445	0,07497	0,07747	0,08567	0,08902	0,10301	0,11767
18229,44333	0,07757	0,08024	0,08828	0,09179	0,10548	0,12125
18220,85055	0,08028	0,08305	0,09099	0,0946	0,1079	0,12505
18212,26614	0,08311	0,0859	0,09382	0,09746	0,11034	0,12888
18203,69009	0,08605	0,08883	0,09678	0,10039	0,11289	0,13255
18195,1224	0,08911	0,09185	0,09989	0,10341	0,11563	0,13589
18186,56304	0,09225	0,09498	0,10312	0,10651	0,11859	0,1388
18178,012	0,09548	0,09823	0,10646	0,10969	0,12179	0,14126
18169,46928	0,09879	0,10162	0,10989	0,11296	0,12522	0,14334
18160,93485	0,10217	0,10515	0,11339	0,11632	0,12884	0,1452
18152,40872	0,10564	0,10879	0,11695	0,11978	0,1326	0,14704
18143,89086	0,10919	0,11256	0,12057	0,12336	0,13647	0,14911
18135,38127	0,11284	0,11641	0,12426	0,12709	0,14042	0,15162
18126,87993	0,11661	0,12034	0,12806	0,13097	0,14444	0,15472
18118,38683	0,12051	0,12432	0,13196	0,13501	0,14854	0,1585
18109,90195	0,12455	0,12835	0,13601	0,13923	0,15274	0,16294
18101,4253	0,12875	0,13243	0,14021	0,14361	0,15705	0,16798
18092,95685	0,13312	0,13655	0,14457	0,14812	0,16151	0,17346
18084,49659	0,13767	0,14075	0,14909	0,15276	0,16611	0,17923
18076,04451	0,14239	0,14506	0,1538	0,1575	0,17086	0,1851
18067,6006	0,1473	0,14951	0,15869	0,16231	0,17577	0,19096
18059,16485	0,1524	0,15415	0,16376	0,16718	0,18084	0,1967
18050,73724	0,15768	0,15901	0,16902	0,17211	0,18607	0,20228
18042,31777	0,16312	0,16412	0,17449	0,17709	0,19146	0,2077
18033,90642	0,16873	0,16948	0,18014	0,18216	0,19702	0,21298
18025,50317	0,1745	0,1751	0,18596	0,18732	0,20274	0,21816
18017,10803	0,1804	0,18095	0,19194	0,19264	0,2086	0,22328
18008,72097	0,18644	0,18701	0,19803	0,19815	0,2146	0,22839
18000,34199	0,19261	0,19323	0,2042	0,20388	0,22069	0,23351
17991,97107	0,19892	0,19957	0,21042	0,20988	0,22685	0,2387
17983,60821	0,20535	0,20601	0,21666	0,21615	0,23305	0,24399
17975,25338	0,21192	0,21253	0,22294	0,22269	0,23929	0,24942
17966,90658	0,21863	0,21912	0,22927	0,22945	0,24555	0,25507
17958,5678	0,22548	0,2258	0,23569	0,23638	0,25187	0,26099
17950,23702	0,23248	0,23257	0,24227	0,24342	0,25829	0,26722
17941,91424	0,23962	0,23948	0,24906	0,2505	0,26486	0,2738
17933,59944	0,24692	0,24654	0,25612	0,25758	0,27164	0,28071
17925,29261	0,25438	0,25377	0,26349	0,26463	0,27868	0,28791
17916,99374	0,26202	0,26118	0,27117	0,27165	0,28602	0,29533
17908,70282	0,26984	0,26879	0,27915	0,27867	0,29367	0,30288
17900,41983	0,27787	0,27657	0,2874	0,28575	0,30162	0,31046
17892,14477	0,28614	0,28452	0,29586	0,29294	0,30984	0,31801
17883,87763	0,29464	0,29263	0,30449	0,30033	0,31828	0,32548
17875,61838	0,30341	0,3009	0,31322	0,30794	0,32687	0,33288
17867,36703	0,31244	0,30934	0,32203	0,31582	0,33552	0,34026
17859,12356	0,32171	0,31796	0,33088	0,32396	0,34417	0,34771
17850,88795	0,3312	0,32678	0,33979	0,33236	0,35275	0,35533
17842,66021	0,34089	0,33582	0,34875	0,34098	0,36123	0,36321
17834,4403	0,35074	0,34509	0,3578	0,3498	0,3696	0,37144
17826,22824	0,36071	0,35459	0,36696	0,3588	0,3779	0,38004
17818,024	0,3708	0,36432	0,37625	0,36795	0,38619	0,38901
17809,82757	0,381	0,37423	0,38568	0,37726	0,39458	0,39827
17801,63894	0,39131	0,38431	0,39526	0,38674	0,40315	0,40774
17793,4581	0,40175	0,39451	0,40499	0,39639	0,41201	0,41728
17785,28504	0,41235	0,40479	0,41486	0,40621	0,42121	0,42679
17777,11975	0,42313	0,41515	0,42483	0,41619	0,43076	0,43616
17768,96222	0,43409	0,42557	0,43491	0,42633	0,44061	0,44535
17760,81244	0,4452	0,43606	0,44507	0,43658	0,45065	0,45433
17752,67038	0,45645	0,44666	0,4553	0,44692	0,46077	0,46315
17744,53606	0,46777	0,4574	0,46561	0,45733	0,47083	0,47189
17736,40944	0,47911	0,46829	0,476	0,46779	0,48073	0,48067
17728,29053	0,49044	0,47937	0,48649	0,47831	0,49044	0,48961
17720,17931	0,50174	0,49064	0,49709	0,48889	0,49999	0,49884
17712,07576	0,51302	0,50209	0,50783	0,49956	0,50948	0,50844
17703,97989	0,52433	0,51368	0,51873	0,51034	0,51903	0,51846
17695,89168	0,53573	0,52539	0,52979	0,52124	0,52881	0,5289
17687,81111	0,54731	0,53715	0,54101	0,53227	0,53893	0,5397
17679,73818	0,55913	0,54893	0,55237	0,5434	0,54946	0,55076
17671,67288	0,57122	0,56068	0,56383	0,55462	0,56039	0,56196
17663,61519	0,58358	0,5724	0,57535	0,56589	0,5716	0,57316
17655,56511	0,59614	0,58406	0,58686	0,57718	0,58295	0,58423
17647,52262	0,60882	0,59567	0,59834	0,58846	0,59427	0,59509
17639,48771	0,62149	0,60725	0,60976	0,59974	0,6054	0,60567
17631,46038	0,63403	0,6188	0,6211	0,61101	0,61624	0,61598
17623,4406	0,64636	0,63037	0,63239	0,62232	0,62678	0,62603
17615,42838	0,65843	0,64196	0,64366	0,63367	0,63705	0,6359
17607,4237	0,67025	0,65359	0,65496	0,6451	0,64716	0,64566
17599,42655	0,68187	0,66525	0,66633	0,6566	0,65724	0,6554
17591,43691	0,6934	0,67695	0,67777	0,66815	0,66737	0,66517
17583,45479	0,70491	0,68864	0,68927	0,6797	0,6776	0,67502
17575,48016	0,71649	0,70031	0,70079	0,69117	0,68793	0,68497
17567,51302	0,72814	0,71191	0,71226	0,70248	0,69828	0,69499
17559,55336	0,73984	0,72339	0,72358	0,71352	0,70857	0,70505
17551,60116	0,75151	0,7347	0,73467	0,72422	0,71869	0,71509
17543,65642	0,76304	0,74582	0,74546	0,73452	0,72862	0,72505
17535,71912	0,77432	0,7567	0,75593	0,74441	0,73837	0,73486
17527,78926	0,78525	0,76736	0,7661	0,75392	0,74803	0,74448
17519,86682	0,7958	0,77781	0,77601	0,76312	0,75773	0,75387
17511,9518	0,80598	0,78807	0,78575	0,77212	0,76761	0,76304
17504,04418	0,81585	0,79818	0,7954	0,78104	0,7778	0,772
17496,14395	0,82551	0,8082	0,80503	0,79003	0,78834	0,78081
17488,25111	0,83507	0,81814	0,81468	0,79917	0,79919	0,78956
17480,36564	0,84461	0,82803	0,82436	0,80853	0,81021	0,79833
17472,48753	0,85416	0,83787	0,83401	0,81815	0,8212	0,80721
17464,61677	0,8637	0,84763	0,84358	0,82798	0,83193	0,81628
17456,75336	0,87317	0,85728	0,85297	0,83795	0,84217	0,82556
17448,89727	0,88246	0,86675	0,86212	0,84793	0,85178	0,83506
17441,04851	0,89145	0,87599	0,87095	0,85778	0,86068	0,8447
17433,20706	0,90004	0,88495	0,87947	0,86739	0,8689	0,85435
17425,37291	0,90817	0,89359	0,88766	0,87662	0,87653	0,86387
17417,54605	0,91583	0,90189	0,89558	0,8854	0,88371	0,87308
17409,72646	0,92304	0,90983	0,90327	0,89372	0,8906	0,88183
17401,91415	0,92988	0,91742	0,91078	0,90158	0,8973	0,89001
17394,1091	0,9364	0,92466	0,91811	0,90905	0,90388	0,89757
17386,3113	0,94269	0,93156	0,92528	0,91621	0,91035	0,90452
17378,52074	0,94878	0,93813	0,93225	0,92314	0,91667	0,91095
17370,73741	0,95467	0,94434	0,93896	0,92992	0,92279	0,91698
17362,9613	0,96032	0,95018	0,94535	0,93659	0,92865	0,92275
17355,1924	0,96568	0,95562	0,95136	0,94313	0,93423	0,92838
17347,4307	0,97068	0,96066	0,95695	0,9495	0,93953	0,93395
17339,67619	0,97526	0,96526	0,96209	0,95559	0,9446	0,93947
17331,92885	0,97937	0,96943	0,96677	0,9613	0,9495	0,94488
17324,18869	0,98301	0,97319	0,971	0,96649	0,95429	0,95008
17316,45569	0,98618	0,97656	0,97482	0,97108	0,959	0,95496
17308,72984	0,98893	0,97959	0,97827	0,97501	0,96363	0,95941
17301,01112	0,9913	0,98233	0,98138	0,9783	0,96814	0,96336
17293,29954	0,99334	0,98483	0,98419	0,98102	0,97247	0,9668
17285,59508	0,99508	0,98715	0,98673	0,98327	0,97651	0,9698
17277,89773	0,99656	0,98934	0,98905	0,98522	0,9802	0,9725
17270,20748	0,99779	0,9914	0,99117	0,987	0,98346	0,97504
17262,52432	0,99876	0,99335	0,9931	0,98874	0,98629	0,97757
17254,84824	0,99946	0,99515	0,99485	0,99052	0,98871	0,98023
17247,17923	0,99988	0,99676	0,99642	0,99235	0,99077	0,98306
17239,51728	1	0,99812	0,99776	0,99419	0,99255	0,98604
17231,86239	0,99981	0,99916	0,99885	0,99595	0,99413	0,98908
17224,21453	0,99928	0,9998	0,99961	0,99751	0,99556	0,99202
17216,57371	0,99842	1	1	0,99875	0,99686	0,99469
17208,93991	0,99722	0,99971	0,99997	0,9996	0,99801	0,99691
17201,31313	0,99568	0,99892	0,99951	1	0,99898	0,99856
17193,69335	0,9938	0,99764	0,99862	0,99997	0,99967	0,99959
17186,08056	0,99161	0,99592	0,99735	0,99957	1	1
17178,47475	0,98911	0,99381	0,99575	0,99887	0,9999	0,99988
17170,87592	0,98633	0,99136	0,99389	0,99795	0,9993	0,99935
17163,28406	0,9833	0,98866	0,99186	0,99687	0,99818	0,99854
17155,69915	0,98004	0,98574	0,98968	0,99566	0,99656	0,99759
17148,12118	0,97655	0,98266	0,98738	0,99431	0,99449	0,99656
17140,55016	0,97283	0,97944	0,98494	0,99279	0,99208	0,99547
17132,98606	0,96887	0,97612	0,98233	0,99103	0,98944	0,99428
17125,42887	0,96466	0,97269	0,97948	0,98897	0,98672	0,99291
17117,87859	0,9602	0,96918	0,97634	0,98659	0,98405	0,99125
17110,33522	0,95548	0,96557	0,97288	0,98386	0,98153	0,9892
17102,79873	0,95051	0,96186	0,9691	0,98083	0,97923	0,98669
17095,26912	0,94533	0,95802	0,96502	0,97751	0,97716	0,98373
17087,74638	0,93998	0,95403	0,96069	0,97397	0,97525	0,98036
17080,2305	0,93452	0,94983	0,95619	0,97025	0,97339	0,97668
17072,72147	0,92898	0,94536	0,95157	0,96636	0,9714	0,97285
17065,21928	0,92342	0,94059	0,94687	0,9623	0,96911	0,96901
17057,72393	0,91784	0,93545	0,94213	0,95804	0,96635	0,96531
17050,2354	0,91225	0,92996	0,93733	0,95355	0,96298	0,96184
17042,75368	0,90663	0,92411	0,93245	0,94881	0,95896	0,95863
17035,27877	0,90094	0,91799	0,92746	0,9438	0,95433	0,95567
17027,81065	0,89514	0,91168	0,92233	0,93856	0,9492	0,95286
17020,34932	0,88921	0,90528	0,91704	0,93315	0,94376	0,95009
17012,89477	0,88311	0,89893	0,9116	0,92764	0,93822	0,94721
17005,44699	0,87685	0,8927	0,90604	0,92211	0,93279	0,9441
16998,00596	0,87044	0,88665	0,90038	0,91665	0,92761	0,94066
16990,57168	0,86387	0,88078	0,89466	0,91127	0,92273	0,93681
16983,14414	0,85718	0,87504	0,8889	0,90599	0,91812	0,93253
16975,72333	0,85038	0,86935	0,8831	0,90077	0,91366	0,92785
16968,30925	0,84348	0,8636	0,87725	0,89554	0,90917	0,92281
16960,90188	0,83648	0,85769	0,87131	0,89022	0,90446	0,91747
16953,50121	0,82939	0,85154	0,86524	0,88473	0,89938	0,91189
16946,10723	0,82222	0,8451	0,85902	0,87904	0,89384	0,90613
16938,71994	0,81498	0,83838	0,85263	0,87311	0,88783	0,90025
16931,33933	0,8077	0,83143	0,8461	0,86695	0,88144	0,89429
16923,96538	0,80041	0,8243	0,83946	0,86061	0,87483	0,88829
16916,5981	0,79315	0,8171	0,83277	0,85411	0,86817	0,88229
16909,23746	0,78595	0,80987	0,82608	0,84753	0,86163	0,87633
16901,88346	0,77884	0,80268	0,81944	0,84091	0,85532	0,87045
16894,53609	0,77182	0,79555	0,81289	0,83429	0,84932	0,86471
16887,19535	0,76488	0,78847	0,80641	0,82771	0,84358	0,85912
16879,86122	0,75797	0,78145	0,79997	0,82121	0,83803	0,85374
16872,53369	0,75105	0,77445	0,79355	0,81479	0,83257	0,84854
16865,21276	0,74406	0,76747	0,78708	0,8085	0,82708	0,84353
16857,89842	0,73696	0,76052	0,78052	0,80234	0,82149	0,83866
16850,59065	0,72972	0,7536	0,77387	0,79633	0,81577	0,83385
16843,28946	0,72236	0,74674	0,76711	0,79045	0,80993	0,82902
16835,99482	0,71489	0,73996	0,76028	0,78468	0,80401	0,82409
16828,70673	0,70736	0,73329	0,7534	0,77898	0,79807	0,81894
16821,42519	0,69983	0,72671	0,74653	0,77327	0,79215	0,8135
16814,15018	0,69235	0,72021	0,73971	0,76747	0,78626	0,80771
16806,88169	0,68498	0,71375	0,73296	0,76152	0,78036	0,80151
16799,61973	0,67773	0,7073	0,7263	0,75534	0,77441	0,79493
16792,36427	0,67062	0,70082	0,71972	0,74891	0,76833	0,78799
16785,1153	0,66364	0,69427	0,7132	0,74223	0,76207	0,78078
16777,87283	0,65677	0,68764	0,70672	0,73532	0,75559	0,77343
16770,63684	0,64998	0,68094	0,70025	0,72826	0,74891	0,76606
16763,40732	0,64324	0,67417	0,69377	0,72113	0,74208	0,75884
16756,18426	0,63653	0,66736	0,68728	0,71401	0,73519	0,75189
16748,96766	0,62986	0,66054	0,68075	0,707	0,72831	0,74535
16741,75751	0,6232	0,65374	0,6742	0,70016	0,72152	0,73927
16734,5538	0,61658	0,64698	0,6676	0,69353	0,71488	0,73368
16727,35651	0,60999	0,64027	0,66097	0,68712	0,70839	0,72852
16720,16564	0,60346	0,63363	0,6543	0,68091	0,70203	0,72368
16712,98119	0,59698	0,62706	0,64761	0,67487	0,69574	0,71904
16705,80314	0,59058	0,62058	0,6409	0,66893	0,68948	0,71441
16698,63149	0,58424	0,61419	0,63419	0,66305	0,68321	0,70965
16691,46622	0,57798	0,60789	0,62752	0,65717	0,67689	0,70461
16684,30733	0,57179	0,60167	0,62092	0,65124	0,67055	0,6992
16677,15481	0,56569	0,59552	0,61444	0,64524	0,66418	0,6934
16670,00865	0,55966	0,58942	0,60811	0,63916	0,65783	0,68724
16662,86884	0,5537	0,58336	0,60196	0,63303	0,65152	0,68079
16655,73538	0,54782	0,5773	0,59601	0,62686	0,64527	0,67416
16648,60825	0,54199	0,57123	0,59026	0,62069	0,63908	0,66749
16641,48745	0,53623	0,56514	0,58467	0,61455	0,63296	0,66089
16634,37297	0,53052	0,55904	0,57924	0,60846	0,6269	0,65448
16627,2648	0,52486	0,55294	0,57391	0,60245	0,62091	0,64834
16620,16293	0,51926	0,54687	0,56867	0,5965	0,61502	0,6425
16613,06735	0,51373	0,54086	0,56348	0,59062	0,60927	0,63698
16605,97806	0,50829	0,53495	0,55833	0,58479	0,6037	0,63175
16598,89505	0,50296	0,52916	0,55321	0,57901	0,59837	0,62678
16591,8183	0,49773	0,52353	0,54811	0,5733	0,5933	0,62202
16584,74782	0,49262	0,51807	0,54302	0,56767	0,58849	0,61739
16577,68359	0,48762	0,51279	0,53794	0,56215	0,5839	0,61284
16570,6256	0,48269	0,5077	0,53286	0,55679	0,57946	0,60831
16563,57384	0,47782	0,5028	0,52776	0,55161	0,57506	0,60374
16556,52832	0,47297	0,49806	0,52263	0,54661	0,57062	0,59908
16549,48901	0,46812	0,49347	0,51747	0,54177	0,56604	0,5943
16542,45591	0,46325	0,489	0,51231	0,53704	0,56126	0,58937
16535,42902	0,45837	0,48459	0,50717	0,53236	0,55626	0,58429
16528,40832	0,45351	0,48019	0,50211	0,52764	0,55106	0,57909
16521,39381	0,4487	0,47577	0,49717	0,52281	0,54571	0,57381
16514,38547	0,44399	0,47127	0,4924	0,51785	0,54029	0,56853
16507,38331	0,43943	0,46667	0,48786	0,51276	0,53488	0,5633
16500,3873	0,43506	0,46197	0,48354	0,50759	0,52958	0,5582
16493,39745	0,43089	0,45721	0,47943	0,50244	0,52443	0,5533
16486,41375	0,42692	0,45243	0,47549	0,49739	0,51949	0,54863
16479,43618	0,42314	0,4477	0,47163	0,49253	0,51476	0,54422
16472,46474	0,41949	0,44311	0,46779	0,48794	0,51025	0,54005
16465,49942	0,41594	0,43873	0,46389	0,48363	0,50593	0,5361
16458,54022	0,41243	0,43461	0,45988	0,47957	0,50177	0,53231
16451,58712	0,40892	0,43077	0,45573	0,47568	0,49776	0,52865
16444,64012	0,40539	0,42718	0,45147	0,47188	0,49388	0,52506
16437,6992	0,40184	0,4238	0,44714	0,46808	0,49012	0,52151
16430,76437	0,39826	0,42055	0,44281	0,46423	0,48649	0,51797
16423,83561	0,39468	0,41737	0,43858	0,46033	0,48301	0,51444
16416,91292	0,39114	0,41418	0,43449	0,4564	0,47968	0,51091
16409,99629	0,38765	0,41093	0,43062	0,45252	0,4765	0,50738
16403,0857	0,38425	0,40762	0,42696	0,44879	0,47344	0,50382
16396,18115	0,38096	0,40426	0,42352	0,44527	0,47045	0,50023
16389,28264	0,37778	0,40089	0,42025	0,44202	0,46745	0,49656
16382,39016	0,37472	0,39757	0,4171	0,43903	0,46436	0,4928
16375,50369	0,37177	0,39436	0,41403	0,43626	0,4611	0,48893
16368,62323	0,36893	0,3913	0,411	0,43361	0,45761	0,48495
16361,74877	0,3662	0,3884	0,408	0,43098	0,45387	0,48089
16354,88031	0,36356	0,38568	0,40506	0,42827	0,44994	0,4768
16348,01783	0,36102	0,38312	0,40218	0,42542	0,4459	0,47276
16341,16133	0,35858	0,38067	0,3994	0,42241	0,44188	0,46884
16334,3108	0,35622	0,3783	0,39674	0,41926	0,43803	0,46512
16327,46624	0,35393	0,37598	0,3942	0,41602	0,43448	0,46165
16320,62763	0,35169	0,37367	0,39176	0,41278	0,43132	0,45846
16313,79497	0,34948	0,37137	0,38939	0,40962	0,42856	0,45553
16306,96825	0,34728	0,36906	0,38703	0,40657	0,42614	0,45281
16300,14745	0,34506	0,36674	0,38464	0,40366	0,42395	0,45023
16293,33259	0,34281	0,36442	0,38218	0,40087	0,42182	0,44772
16286,52364	0,34052	0,36208	0,37964	0,39815	0,41959	0,4452
16279,7206	0,33822	0,35973	0,37703	0,39545	0,41714	0,44263
16272,92345	0,33593	0,35736	0,37439	0,39272	0,41443	0,43998
16266,13221	0,33367	0,35496	0,37176	0,38993	0,41147	0,43727
16259,34685	0,33149	0,35252	0,36918	0,38706	0,40837	0,43452
16252,56736	0,3294	0,35006	0,36668	0,38414	0,40527	0,43178
16245,79375	0,32742	0,3476	0,36427	0,38122	0,4023	0,42909
16239,026	0,32554	0,34518	0,36194	0,37835	0,39956	0,42646
16232,2641	0,32375	0,34282	0,35967	0,3756	0,39711	0,4239
16225,50806	0,32201	0,34057	0,3574	0,373	0,39489	0,42138
16218,75785	0,32027	0,33847	0,35512	0,37059	0,39282	0,41887
16212,01347	0,3185	0,33651	0,35282	0,36836	0,39076	0,41632
16205,27493	0,31667	0,33469	0,3505	0,36629	0,38859	0,41369
16198,54219	0,31477	0,33298	0,34819	0,36434	0,38622	0,41096
16191,81527	0,3128	0,33133	0,34593	0,36247	0,38366	0,40813
16185,09415	0,31081	0,32968	0,34377	0,36063	0,38096	0,40522
16178,37882	0,30884	0,32796	0,34173	0,35876	0,37824	0,40226
16171,66929	0,30692	0,32614	0,33984	0,35684	0,37567	0,39931
16164,96553	0,30511	0,3242	0,33806	0,35484	0,37335	0,39641
16158,26754	0,30343	0,32214	0,33637	0,35274	0,37138	0,39362
16151,57532	0,30189	0,31999	0,33471	0,35056	0,36976	0,39095
16144,88886	0,30045	0,31782	0,33302	0,34831	0,36841	0,38845
16138,20815	0,2991	0,31568	0,33126	0,34603	0,3672	0,38612
16131,53318	0,29777	0,31363	0,32939	0,34375	0,36599	0,38396
16124,86394	0,29643	0,31173	0,32743	0,34154	0,36462	0,38197
16118,20044	0,29503	0,30998	0,32538	0,33941	0,363	0,38012
16111,54265	0,29356	0,30838	0,32329	0,33739	0,36111	0,37839
16104,89058	0,29201	0,30689	0,3212	0,33549	0,35897	0,37673
16098,24421	0,2904	0,30547	0,31915	0,33369	0,35666	0,37511
16091,60355	0,28876	0,30405	0,31717	0,33196	0,3543	0,37347
16084,96857	0,28712	0,30258	0,31529	0,33025	0,35197	0,37175
16078,33928	0,28553	0,30105	0,31349	0,32852	0,34972	0,36991
16071,71566	0,28399	0,29944	0,31177	0,32673	0,34757	0,36791
16065,09771	0,28253	0,29778	0,31011	0,32487	0,34549	0,36574
16058,48543	0,28112	0,29609	0,30849	0,32294	0,34342	0,36342
16051,8788	0,27976	0,29442	0,30691	0,32095	0,34132	0,36098
16045,27782	0,27842	0,29281	0,30534	0,31894	0,33914	0,35851
16038,68248	0,27706	0,29127	0,30378	0,31694	0,33687	0,35607
16032,09277	0,27567	0,28981	0,30222	0,31499	0,33455	0,35375
16025,50869	0,27423	0,2884	0,30067	0,3131	0,33223	0,35163
16018,93022	0,27274	0,28702	0,29911	0,31128	0,32998	0,34973
16012,35737	0,27121	0,28563	0,29754	0,30949	0,32785	0,34809
16005,79012	0,26968	0,28421	0,29595	0,30773	0,32588	0,34668
15999,22847	0,26815	0,28276	0,29435	0,30596	0,32407	0,34544
15992,67241	0,26667	0,28129	0,29273	0,30415	0,32239	0,34429
15986,12194	0,26525	0,27981	0,2911	0,3023	0,3208	0,34314
15979,57703	0,26392	0,27836	0,28946	0,30042	0,31924	0,34189
15973,0377	0,26267	0,27696	0,28783	0,29852	0,31767	0,34045
15966,50393	0,2615	0,2756	0,2862	0,29663	0,31607	0,33877
15959,97572	0,26039	0,27427	0,28458	0,29479	0,31442	0,33683
15953,45305	0,2593	0,27293	0,28296	0,29301	0,31274	0,33462
15946,93592	0,2582	0,27152	0,28133	0,29132	0,31104	0,33221
15940,42432	0,25707	0,26999	0,27971	0,28971	0,30934	0,32964
15933,91826	0,25586	0,26829	0,27808	0,28819	0,30763	0,32702
15927,41771	0,25457	0,26642	0,27646	0,28673	0,30591	0,32441
15920,92267	0,25317	0,26439	0,27485	0,28532	0,30415	0,32191
15914,43314	0,25169	0,26224	0,27328	0,28394	0,30231	0,31953
15907,9491	0,25013	0,26008	0,27176	0,28257	0,30037	0,31732
15901,47056	0,24851	0,25797	0,27029	0,28118	0,29833	0,31525
15894,99751	0,24685	0,25602	0,26888	0,27977	0,2962	0,31331
15888,52993	0,24518	0,25429	0,26751	0,27832	0,29402	0,31145
15882,06782	0,24351	0,25278	0,26615	0,27682	0,29186	0,30965
15875,61117	0,24183	0,2515	0,26479	0,27525	0,28982	0,3079
15869,15998	0,24016	0,25037	0,26338	0,27361	0,28796	0,30623
15862,71424	0,23848	0,24932	0,2619	0,27189	0,28637	0,30466
15856,27394	0,2368	0,24826	0,26033	0,27011	0,28507	0,30324
15849,83908	0,23512	0,2471	0,25866	0,26828	0,28408	0,30199
15843,40965	0,23343	0,24577	0,25689	0,2664	0,28334	0,30092
15836,98564	0,23177	0,24426	0,25503	0,26451	0,28275	0,29999
15830,56705	0,23013	0,24256	0,25311	0,26262	0,28219	0,2991
15824,15386	0,22855	0,24072	0,25114	0,26073	0,28149	0,29811
15817,74608	0,22702	0,23879	0,24915	0,25885	0,28052	0,29689
15811,34369	0,22555	0,23684	0,24717	0,25697	0,27913	0,29528
15804,94669	0,22412	0,23493	0,24521	0,25508	0,27725	0,29319
15798,55507	0,22271	0,23311	0,24329	0,25315	0,27487	0,29061
15792,16883	0,2213	0,2314	0,24143	0,25118	0,27204	0,28757
15785,78795	0,21986	0,2298	0,23963	0,24917	0,2689	0,28421
15779,41243	0,21837	0,2283	0,2379	0,24714	0,2656	0,28074
15773,04227	0,21683	0,22688	0,23623	0,24512	0,26234	0,27736
15766,67746	0,21524	0,22549	0,23461	0,24316	0,2593	0,27428
15760,31798	0,21362	0,22411	0,23303	0,24128	0,25662	0,27165
15753,96384	0,21199	0,2227	0,23146	0,23954	0,25437	0,26953
15747,61503	0,21037	0,22124	0,22987	0,23795	0,25256	0,26792
15741,27154	0,20878	0,21973	0,22824	0,23651	0,25111	0,2667
15734,93336	0,20722	0,21815	0,22655	0,2352	0,2499	0,26575
15728,60049	0,20568	0,2165	0,2248	0,23397	0,24878	0,26487
15722,27292	0,20414	0,21481	0,22298	0,23277	0,2476	0,26393
15715,95065	0,20257	0,21309	0,22112	0,23153	0,24624	0,26281
15709,63366	0,20096	0,21135	0,21924	0,23017	0,24462	0,26145
15703,32195	0,19928	0,20961	0,21737	0,22864	0,24273	0,25987
15697,01552	0,19755	0,2079	0,21555	0,22689	0,24061	0,25812
15690,71435	0,19579	0,20623	0,21381	0,22492	0,23835	0,25627
15684,41845	0,19402	0,2046	0,21215	0,22273	0,23604	0,25439
15678,1278	0,19228	0,20302	0,21058	0,22038	0,2338	0,25255
15671,84239	0,19062	0,20148	0,2091	0,21794	0,23171	0,25076
15665,56223	0,18906	0,19994	0,20768	0,21549	0,2298	0,24903
15659,28731	0,1876	0,1984	0,20631	0,21314	0,2281	0,24733
15653,01761	0,18624	0,19683	0,20494	0,21097	0,22658	0,24562
15646,75313	0,18495	0,19522	0,20355	0,20907	0,22517	0,24387
15640,49387	0,18368	0,19355	0,20213	0,20748	0,22379	0,24209
15634,23982	0,18239	0,19185	0,20064	0,2062	0,22237	0,24027
15627,99097	0,18105	0,19013	0,1991	0,20518	0,22085	0,23845
15621,74731	0,17963	0,18842	0,1975	0,20436	0,21918	0,23666
15615,50885	0,1781	0,18675	0,19586	0,20361	0,21735	0,23492
15609,27556	0,17649	0,18516	0,1942	0,20283	0,2154	0,23325
15603,04746	0,17479	0,18365	0,19255	0,20188	0,21338	0,23163
15596,82452	0,17305	0,18225	0,19091	0,2007	0,21137	0,23005
15590,60675	0,1713	0,18092	0,18929	0,19921	0,20945	0,22846
15584,39413	0,16957	0,17965	0,18769	0,19744	0,2077	0,22683
15578,18667	0,16789	0,17839	0,18609	0,19542	0,20616	0,22513
15571,98435	0,16628	0,17711	0,18446	0,19323	0,20487	0,22338
15565,78716	0,16475	0,17578	0,18275	0,19099	0,20378	0,22157
15559,59511	0,16329	0,17435	0,18094	0,18879	0,20284	0,21974
15553,40818	0,1619	0,17282	0,17902	0,18673	0,20197	0,21793
15547,22637	0,16056	0,1712	0,177	0,18484	0,20108	0,21616
15541,04968	0,15926	0,16951	0,17491	0,18314	0,20007	0,21443
15534,87809	0,15797	0,16778	0,17283	0,1816	0,19889	0,21273
15528,7116	0,15668	0,16604	0,17083	0,18015	0,19751	0,211
15522,5502	0,15536	0,16435	0,16899	0,17871	0,19594	0,2092
15516,39389	0,15401	0,16271	0,16738	0,17721	0,19422	0,20727
15510,24266	0,15263	0,16116	0,16603	0,17561	0,1924	0,20518
15504,09651	0,15121	0,1597	0,16495	0,17387	0,19053	0,20294
15497,95542	0,14976	0,15831	0,16408	0,17202	0,18865	0,20059
15491,8194	0,14831	0,157	0,16335	0,17012	0,18676	0,19823
15485,68843	0,14686	0,15572	0,16266	0,16822	0,18486	0,19596
15479,56251	0,14542	0,15445	0,16191	0,1664	0,18292	0,19392
15473,44164	0,144	0,15316	0,16102	0,16472	0,18091	0,19218
15467,3258	0,14259	0,15183	0,15993	0,16321	0,17881	0,19082
15461,21499	0,1412	0,15043	0,15864	0,16186	0,17666	0,18981
15455,10921	0,13981	0,14893	0,15718	0,16065	0,17448	0,1891
15449,00845	0,1384	0,14734	0,1556	0,15951	0,17235	0,18856
15442,91269	0,13697	0,14564	0,15396	0,15835	0,17036	0,18805
15436,82195	0,13551	0,14384	0,15234	0,15711	0,16858	0,18742
15430,7362	0,13403	0,14197	0,15078	0,15573	0,16708	0,18656
15424,65545	0,13252	0,14005	0,14931	0,15419	0,16586	0,18541
15418,57969	0,13102	0,13813	0,1479	0,1525	0,16491	0,18398
15412,5089	0,12953	0,13625	0,14653	0,15072	0,16416	0,18232
15406,4431	0,12808	0,13446	0,14515	0,1489	0,16352	0,18053
15400,38226	0,12668	0,1328	0,14372	0,14713	0,16287	0,17872
15394,32638	0,12532	0,13129	0,14221	0,14546	0,16212	0,17696
15388,27547	0,12401	0,12994	0,1406	0,14394	0,16119	0,17531
15382,2295	0,12275	0,12877	0,13892	0,14259	0,16003	0,17378
15376,18848	0,12151	0,12773	0,13718	0,14138	0,15865	0,17233
15370,1524	0,12028	0,1268	0,13544	0,14029	0,15704	0,17091
15364,12125	0,11905	0,12594	0,13374	0,13924	0,15527	0,16946
15358,09503	0,11782	0,1251	0,13213	0,13819	0,15337	0,16795
15352,07373	0,11659	0,12424	0,13064	0,13711	0,15141	0,1664
15346,05734	0,11535	0,12333	0,12928	0,13596	0,14944	0,16486
15340,04586	0,1141	0,12234	0,12807	0,13475	0,1475	0,16338
15334,03929	0,11287	0,12126	0,127	0,1335	0,14564	0,16205
15328,03761	0,11165	0,12011	0,12603	0,13226	0,14388	0,1609
15322,04082	0,11046	0,11888	0,12514	0,13105	0,14225	0,15994
15316,04892	0,10929	0,11761	0,12429	0,1299	0,14076	0,15911
15310,06189	0,10815	0,1163	0,12344	0,12883	0,13942	0,15832
15304,07974	0,10706	0,11499	0,12254	0,12783	0,1382	0,15745
15298,10246	0,106	0,1137	0,12155	0,12686	0,13711	0,1564
15292,13004	0,10499	0,11246	0,12046	0,12588	0,13609	0,1551
15286,16247	0,10401	0,11128	0,11925	0,12485	0,13512	0,15354
15280,19975	0,10305	0,11017	0,11794	0,12373	0,13417	0,1518
15274,24188	0,10211	0,10914	0,11657	0,12249	0,13319	0,14998
15268,28884	0,10117	0,10817	0,11517	0,12112	0,13216	0,14822
15262,34064	0,10021	0,10724	0,11382	0,11962	0,13108	0,14667
15256,39726	0,09922	0,10633	0,11257	0,11803	0,12995	0,1454
15250,4587	0,0982	0,1054	0,11144	0,11639	0,12878	0,14444
15244,52495	0,09714	0,10443	0,11045	0,11476	0,12762	0,14375
15238,59601	0,09606	0,1034	0,10956	0,11318	0,12649	0,14324
15232,67188	0,09497	0,10231	0,10871	0,11173	0,12544	0,14276
15226,75254	0,09389	0,10117	0,10783	0,11043	0,12451	0,14221
15220,83799	0,09284	0,1	0,10684	0,10931	0,12371	0,14148
15214,92823	0,09182	0,09886	0,10565	0,10837	0,12306	0,14053
15209,02324	0,09084	0,09776	0,10426	0,10758	0,12254	0,13936
15203,12303	0,08988	0,09676	0,10265	0,10688	0,12212	0,13803
15197,22759	0,08895	0,09586	0,10088	0,10622	0,12172	0,1366
15191,33691	0,08801	0,09507	0,09905	0,10551	0,12126	0,13513
15185,45098	0,08707	0,09436	0,09726	0,1047	0,12063	0,13368
15179,56981	0,0861	0,0937	0,09563	0,10373	0,11974	0,13226
15173,69338	0,08511	0,09303	0,09423	0,10261	0,1185	0,13087
15167,82168	0,08411	0,09231	0,09312	0,10134	0,11689	0,12951
15161,95472	0,0831	0,09149	0,0923	0,09997	0,11492	0,12818
15156,09249	0,08209	0,09055	0,09173	0,09857	0,11269	0,12687
15150,23498	0,0811	0,08949	0,09131	0,09722	0,11035	0,12561
15144,38219	0,08013	0,0883	0,09097	0,09597	0,10808	0,12443
15138,5341	0,0792	0,08704	0,09061	0,09484	0,10607	0,12335
15132,69072	0,0783	0,08575	0,09016	0,09385	0,10449	0,12239
15126,85204	0,07744	0,08448	0,08958	0,09296	0,10343	0,12152
15121,01806	0,07661	0,08329	0,08886	0,09213	0,1029	0,12072
15115,18876	0,0758	0,08222	0,08801	0,09132	0,10282	0,11995
15109,36414	0,07503	0,08129	0,08709	0,0905	0,10301	0,1192
15103,5442	0,07426	0,08051	0,08613	0,08969	0,10325	0,11844
15097,72893	0,07351	0,07989	0,08519	0,08891	0,10331	0,11773
15091,91832	0,07274	0,07938	0,08429	0,08823	0,10301	0,11712
15086,11238	0,07195	0,07896	0,08347	0,0877	0,10224	0,11668
15080,31108	0,07111	0,07857	0,08272	0,08737	0,101	0,11647
15074,51444	0,07022	0,07816	0,08204	0,08725	0,09938	0,11649
15068,72244	0,06928	0,07768	0,08143	0,08727	0,09755	0,11669
15062,93507	0,06829	0,07708	0,08086	0,08736	0,09573	0,11694
15057,15234	0,06727	0,07635	0,08034	0,08738	0,09411	0,11709
15051,37423	0,06627	0,07548	0,07983	0,0872	0,09282	0,11693
15045,60075	0,06532	0,07449	0,07933	0,08669	0,09192	0,11633
15039,83188	0,06447	0,07341	0,07881	0,08579	0,09138	0,1152
15034,06761	0,06374	0,0723	0,07826	0,08452	0,09109	0,11358
15028,30796	0,06314	0,07119	0,07767	0,08295	0,09089	0,11161
15022,5529	0,06268	0,07015	0,07701	0,08121	0,09065	0,1095
15016,80243	0,06233	0,06921	0,07629	0,07947	0,09025	0,10751
15011,05655	0,06204	0,06838	0,0755	0,07791	0,08966	0,10586
15005,31525	0,06178	0,06766	0,07465	0,07664	0,08891	0,10472
14999,57853	0,06149	0,06703	0,07376	0,07573	0,08807	0,10412
14993,84638	0,06113	0,06646	0,07284	0,07516	0,08727	0,10397
14988,1188	0,06069	0,06591	0,07191	0,07486	0,0866	0,10407
14982,39578	0,06015	0,06535	0,07099	0,0747	0,0861	0,10419
14976,67731	0,05953	0,06474	0,07008	0,07453	0,08578	0,10408
14970,96339	0,05886	0,0641	0,06919	0,07424	0,08554	0,10356
14965,25401	0,05815	0,06343	0,06833	0,07374	0,08528	0,10257
14959,54917	0,05745	0,06274	0,0675	0,073	0,08486	0,10113
14953,84887	0,05676	0,06206	0,0667	0,07206	0,08419	0,0994
14948,15309	0,0561	0,06141	0,06596	0,07099	0,08321	0,09757
14942,46183	0,05548	0,06081	0,06527	0,06989	0,08195	0,09586
14936,7751	0,05488	0,06026	0,06466	0,06886	0,08051	0,09442
14931,09287	0,05431	0,05976	0,06412	0,06795	0,07904	0,09335
14925,41515	0,05374	0,05929	0,06364	0,06721	0,0777	0,09266
14919,74193	0,05318	0,05882	0,06322	0,06663	0,07661	0,09225
14914,0732	0,05263	0,05835	0,06281	0,06616	0,07586	0,09201
14908,40897	0,05209	0,05784	0,06241	0,06572	0,07545	0,09178
14902,74922	0,05155	0,0573	0,06197	0,06526	0,07529	0,09146
14897,09395	0,05103	0,05674	0,06149	0,06472	0,07528	0,09097
14891,44315	0,05053	0,05616	0,06096	0,06405	0,07526	0,0903
14885,79683	0,05004	0,05558	0,0604	0,06327	0,07512	0,08949
14880,15496	0,04955	0,05502	0,05981	0,06239	0,07476	0,0886
14874,51756	0,04908	0,05448	0,05922	0,06148	0,07416	0,08771
14868,88461	0,04859	0,05398	0,05866	0,06059	0,07338	0,08688
14863,2561	0,04811	0,0535	0,05814	0,05978	0,07248	0,08615
14857,63204	0,04761	0,05304	0,05765	0,05912	0,07157	0,08551
14852,01241	0,04712	0,05258	0,05717	0,05861	0,07073	0,08496
14846,39722	0,04662	0,05211	0,0567	0,05825	0,07002	0,08449
14840,78645	0,04614	0,05161	0,0562	0,05802	0,06944	0,08406
14835,18011	0,04568	0,05109	0,05566	0,05785	0,06895	0,08368
14829,57818	0,04524	0,05053	0,05508	0,05769	0,06848	0,08336
14823,98066	0,04483	0,04997	0,05446	0,05747	0,06796	0,08311
14818,38755	0,04445	0,04941	0,05384	0,05714	0,06734	0,08292
14812,79884	0,04409	0,04888	0,05322	0,05667	0,06659	0,0828
14807,21452	0,04374	0,04839	0,05266	0,05608	0,06572	0,08272
14801,6346	0,04341	0,04794	0,05215	0,05538	0,06479	0,08261
14796,05906	0,04309	0,04754	0,05172	0,05464	0,06386	0,08243
14790,4879	0,04277	0,04716	0,05134	0,05392	0,06302	0,08209
14784,92111	0,04245	0,04679	0,051	0,05326	0,06231	0,08156
14779,3587	0,04214	0,04639	0,05066	0,05272	0,06176	0,08079
14773,80065	0,04184	0,04593	0,05031	0,05229	0,06136	0,07979
14768,24695	0,04156	0,04541	0,04991	0,05196	0,06108	0,0786
14762,69762	0,04129	0,04481	0,04946	0,05168	0,06087	0,07728
14757,15263	0,04104	0,04416	0,04897	0,05141	0,06066	0,0759
14751,61198	0,04079	0,04347	0,04846	0,05109	0,06041	0,07455
14746,07568	0,04053	0,0428	0,04796	0,05068	0,0601	0,07332
14740,54371	0,04025	0,04219	0,04749	0,05017	0,05973	0,07227
14735,01606	0,03993	0,04168	0,04708	0,04959	0,0593	0,07144
14729,49275	0,03956	0,0413	0,04673	0,04897	0,05884	0,07086
14723,97375	0,03915	0,04105	0,04644	0,04837	0,05837	0,07051
14718,45906	0,03869	0,04093	0,0462	0,04783	0,0579	0,07036
14712,94868	0,03819	0,04089	0,04597	0,04737	0,05743	0,07036
14707,44261	0,03769	0,04088	0,04573	0,04702	0,05694	0,07042
14701,94083	0,03721	0,04086	0,04546	0,04674	0,05642	0,07048
14696,44335	0,03676	0,04078	0,04512	0,04648	0,05586	0,07045
14690,95015	0,03635	0,04061	0,04471	0,04621	0,05525	0,07029
14685,46124	0,036	0,04033	0,04423	0,04588	0,05461	0,06994
14679,97661	0,03569	0,03997	0,04368	0,04546	0,05395	0,06942
14674,49625	0,03541	0,03953	0,04307	0,04496	0,05332	0,06875
14669,02016	0,03515	0,03907	0,04242	0,04439	0,05274	0,06798
14663,54834	0,03488	0,03863	0,04176	0,04379	0,05224	0,06718
14658,08077	0,0346	0,03822	0,0411	0,04321	0,05183	0,06644
14652,61745	0,0343	0,03787	0,04047	0,04269	0,05152	0,06581
14647,15839	0,03397	0,03757	0,03988	0,04225	0,05129	0,06533
14641,70356	0,03364	0,03732	0,03934	0,0419	0,05112	0,06504
14636,25298	0,03332	0,03708	0,03885	0,04161	0,05101	0,0649
14630,80663	0,03302	0,03683	0,03842	0,04137	0,05093	0,0649
14625,36451	0,03275	0,03654	0,03803	0,04114	0,05088	0,06497
14619,92661	0,03251	0,03622	0,03769	0,04091	0,05086	0,06506
14614,49293	0,03231	0,03584	0,03738	0,04066	0,05089	0,06512
14609,06347	0,03212	0,03542	0,03711	0,0404	0,05096	0,06512
14603,63821	0,03194	0,03498	0,03688	0,04014	0,05109	0,06502
14598,21716	0,03175	0,03453	0,03669	0,0399	0,05126	0,06483
14592,80031	0,03154	0,03409	0,03656	0,03967	0,05146	0,06455
14587,38766	0,0313	0,03368	0,03648	0,03945	0,05167	0,06418
14581,97919	0,03105	0,0333	0,03646	0,03922	0,05182	0,06372
14576,57491	0,03077	0,03296	0,03647	0,03895	0,05189	0,0632
14571,17481	0,03047	0,03266	0,03648	0,03861	0,05181	0,0626
14565,77888	0,03017	0,0324	0,03647	0,03819	0,05155	0,06192
14560,38712	0,02986	0,0322	0,03639	0,03769	0,05107	0,06118
14554,99953	0,02955	0,03204	0,03621	0,03714	0,05038	0,06036
14549,6161	0,02922	0,03194	0,0359	0,03657	0,04948	0,05949
14544,23683	0,02889	0,03188	0,03547	0,03605	0,04841	0,05859
14538,8617	0,02855	0,03186	0,03494	0,03563	0,04723	0,05767
14533,49073	0,02821	0,03185	0,03436	0,03534	0,04601	0,05676
14528,12389	0,02787	0,03183	0,03379	0,0352	0,04484	0,05591
14522,76119	0,02754	0,03175	0,03328	0,03521	0,04378	0,05514
14517,40262	0,02724	0,03159	0,03288	0,03531	0,04292	0,05451
14512,04818	0,02698	0,03134	0,03262	0,03547	0,0423	0,05403
14506,69787	0,02677	0,03097	0,03248	0,0356	0,04194	0,05377
14501,35167	0,02662	0,03052	0,03242	0,03565	0,04185	0,05374
14496,00958	0,02651	0,02999	0,03238	0,03557	0,04199	0,05398
14490,6716	0,02643	0,02944	0,03227	0,03533	0,04229	0,05448
14485,33773	0,02636	0,02891	0,03201	0,03493	0,04268	0,05524
14480,00795	0,02629	0,02843	0,03156	0,03437	0,04309	0,0562
14474,68227	0,02617	0,02806	0,03091	0,03371	0,04342	0,05728
14469,36067	0,02599	0,0278	0,03008	0,03297	0,04362	0,05839
14464,04317	0,02573	0,02765	0,02915	0,03221	0,04364	0,05939
14458,72974	0,02539	0,0276	0,02822	0,03147	0,04348	0,06016
14453,42038	0,02497	0,02762	0,02739	0,0308	0,04314	0,06059
14448,1151	0,02451	0,02767	0,02678	0,03023	0,04266	0,06059
14442,81388	0,02402	0,02771	0,02644	0,02977	0,0421	0,06014
14437,51673	0,02355	0,02771	0,0264	0,02945	0,04152	0,05924
14432,22363	0,02314	0,02766	0,02664	0,02925	0,04097	0,05798
14426,93458	0,02282	0,02753	0,0271	0,02916	0,0405	0,05645
14421,64958	0,02261	0,02734	0,02767	0,02915	0,04014	0,0548
14416,36862	0,0225	0,02709	0,02825	0,02918	0,03991	0,05319
14411,0917	0,02249	0,02682	0,02875	0,02921	0,03979	0,05174
14405,81881	0,02254	0,02653	0,02908	0,0292	0,03977	0,05055
14400,54996	0,02263	0,02624	0,02921	0,02913	0,03981	0,0497
14395,28512	0,02271	0,02597	0,02915	0,02898	0,03988	0,04919
14390,02431	0,02275	0,02573	0,02893	0,02875	0,03991	0,049
14384,76751	0,02274	0,0255	0,02861	0,02846	0,03989	0,04908
14379,51472	0,02267	0,02528	0,02826	0,02814	0,03978	0,04936
14374,26594	0,02255	0,02507	0,02792	0,02782	0,03957	0,04975
14369,02115	0,0224	0,02483	0,02765	0,02751	0,03927	0,05021
14363,78037	0,02223	0,02458	0,02745	0,02722	0,03888	0,05067
14358,54358	0,02206	0,0243	0,02732	0,02695	0,03843	0,05109
14353,31077	0,02189	0,024	0,02722	0,02668	0,03796	0,05146
14348,08195	0,02172	0,02369	0,02712	0,02638	0,03751	0,05174
14342,8571	0,02153	0,02337	0,02697	0,02603	0,03711	0,05191
14337,63623	0,02131	0,02308	0,02675	0,02561	0,03678	0,05194
14332,41933	0,02104	0,02282	0,02644	0,02515	0,03654	0,05181
14327,20639	0,02074	0,0226	0,02605	0,02468	0,03638	0,05148
14321,99742	0,0204	0,02242	0,02559	0,02423	0,03628	0,05094
14316,79239	0,02007	0,02228	0,02511	0,02385	0,0362	0,0502
14311,59133	0,01976	0,02216	0,02462	0,02361	0,03612	0,04929
14306,3942	0,01952	0,02204	0,02418	0,02351	0,03599	0,04825
14301,20102	0,01936	0,02191	0,02381	0,02356	0,03578	0,04716
14296,01178	0,01929	0,02175	0,02352	0,02373	0,0355	0,04608
14290,82647	0,01931	0,02155	0,02331	0,02397	0,03515	0,04509
14285,64509	0,01937	0,02132	0,02316	0,02419	0,03475	0,04424
14280,46764	0,01945	0,02109	0,02305	0,02434	0,03434	0,04356
14275,2941	0,01949	0,02086	0,02297	0,02434	0,03396	0,04307
14270,12448	0,01946	0,02065	0,02288	0,02416	0,03363	0,04274
14264,95877	0,01934	0,02049	0,02277	0,02382	0,03339	0,04256
14259,79697	0,01912	0,02038	0,02265	0,02333	0,03322	0,04247
14254,63907	0,01883	0,0203	0,02251	0,02275	0,03312	0,04245
14249,48507	0,01849	0,02024	0,02237	0,02215	0,03305	0,04247
14244,33496	0,01814	0,02017	0,02224	0,02161	0,03299	0,04249
14239,18874	0,01782	0,02005	0,02213	0,02117	0,03289	0,04248
14234,0464	0,01754	0,01988	0,02204	0,02086	0,03274	0,04244
14228,90795	0,01732	0,01964	0,02195	0,0207	0,03253	0,04235
14223,77337	0,01717	0,01935	0,02186	0,02067	0,03227	0,04218
14218,64266	0,01706	0,01901	0,02172	0,02073	0,03197	0,04194
14213,51582	0,01698	0,01868	0,02151	0,02084	0,03166	0,04161
14208,39284	0,01691	0,01838	0,02123	0,02097	0,03135	0,04123
14203,27372	0,01683	0,01813	0,02087	0,02107	0,03105	0,04083
14198,15846	0,01673	0,01796	0,02045	0,02111	0,03075	0,04045
14193,04704	0,01662	0,01785	0,02001	0,02108	0,03045	0,04014
14187,93947	0,01649	0,01779	0,01959	0,02097	0,03014	0,03996
14182,83574	0,01635	0,01774	0,01925	0,02078	0,02981	0,03994
14177,73585	0,01621	0,01766	0,01901	0,02051	0,02948	0,04007
14172,63979	0,01607	0,01754	0,0189	0,02018	0,02918	0,04034
14167,54756	0,01594	0,01736	0,01892	0,01981	0,02895	0,04068
14162,45915	0,01581	0,01712	0,01903	0,01942	0,02883	0,04102
14157,37456	0,01568	0,01685	0,01919	0,01905	0,02885	0,04128
14152,29379	0,01554	0,01657	0,01935	0,01874	0,02902	0,04138
14147,21682	0,0154	0,01632	0,01946	0,01852	0,02931	0,0413
14142,14367	0,01526	0,01612	0,01948	0,01842	0,02968	0,04103
14137,07431	0,01511	0,01598	0,0194	0,01846	0,03005	0,04061
14132,00876	0,01496	0,0159	0,01921	0,01861	0,03032	0,04011
14126,94699	0,01481	0,01584	0,01894	0,01885	0,03043	0,0396
14121,88902	0,01467	0,01578	0,01862	0,01913	0,03031	0,03917
14116,83483	0,01453	0,01567	0,01827	0,01938	0,02998	0,03885
14111,78443	0,01441	0,0155	0,0179	0,01954	0,02945	0,03867
14106,7378	0,0143	0,01524	0,01752	0,01953	0,02881	0,03861
14101,69494	0,01421	0,01491	0,01713	0,01933	0,02815	0,03861
14096,65585	0,01414	0,01454	0,01673	0,01893	0,02757	0,03862
14091,62053	0,01409	0,01416	0,01631	0,01837	0,02716	0,03859
14086,58896	0,01406	0,01382	0,01589	0,01769	0,02696	0,03848
14081,56116	0,01402	0,01355	0,0155	0,01697	0,02695	0,03827
14076,5371	0,01398	0,01338	0,01518	0,01631	0,0271	0,038
14071,51679	0,01392	0,01329	0,01497	0,01576	0,02732	0,03771
14066,50022	0,01383	0,01329	0,0149	0,01538	0,02752	0,03743
14061,48739	0,01369	0,01332	0,015	0,0152	0,02762	0,03722
14056,4783	0,01352	0,01337	0,01525	0,0152	0,02758	0,03708
14051,47294	0,01332	0,01338	0,01561	0,01536	0,02736	0,03699
14046,4713	0,01311	0,01334	0,016	0,01561	0,02701	0,03692
14041,47339	0,01291	0,01324	0,01634	0,0159	0,02656	0,03678
14036,47919	0,01274	0,01309	0,01655	0,01616	0,02611	0,03653
14031,48871	0,01262	0,01291	0,01657	0,01636	0,0257	0,0361
14026,50194	0,01255	0,01273	0,01637	0,01647	0,0254	0,03547
14021,51887	0,01254	0,01257	0,01597	0,01649	0,0252	0,03469
14016,53951	0,01256	0,01246	0,01545	0,01644	0,02511	0,03382
14011,56384	0,0126	0,01239	0,01488	0,01634	0,02505	0,03298
14006,59187	0,01263	0,01237	0,01438	0,01623	0,02496	0,03228
14001,62359	0,01263	0,01239	0,01403	0,01613	0,02478	0,03185
13996,65899	0,01259	0,01243	0,0139	0,01607	0,02443	0,03175
13991,69807	0,0125	0,01247	0,014	0,01604	0,0239	0,032
13986,74083	0,01238	0,01251	0,01428	0,01604	0,02319	0,03256
13981,78726	0,01222	0,01253	0,01469	0,01603	0,02234	0,03332
13976,83736	0,01205	0,01255	0,01512	0,01599	0,02141	0,03414
13971,89113	0,01187	0,01255	0,01548	0,01589	0,0205	0,03487
13966,94856	0,0117	0,01253	0,01567	0,0157	0,01971	0,03537
13962,00964	0,01153	0,01251	0,01566	0,01542	0,0191	0,03556
13957,07438	0,01136	0,01245	0,01543	0,01503	0,01874	0,03541
13952,14276	0,0112	0,01235	0,01503	0,01458	0,01867	0,03497
13947,21479	0,01103	0,0122	0,01452	0,01409	0,01886	0,03434
13942,29046	0,01087	0,01198	0,01398	0,01361	0,01928	0,03365
13937,36977	0,01071	0,0117	0,0135	0,01321	0,01987	0,03304
13932,4527	0,01058	0,01136	0,01312	0,01293	0,02054	0,0326
13927,53927	0,01049	0,01098	0,01288	0,01279	0,0212	0,03239
13922,62946	0,01044	0,0106	0,01277	0,01282	0,02178	0,03239
13917,72328	0,01044	0,01025	0,01276	0,01301	0,0222	0,03255
13912,8207	0,01048	0,00996	0,0128	0,01331	0,02245	0,03274
13907,92174	0,01054	0,00975	0,01283	0,01368	0,02251	0,03287
13903,02639	0,0106	0,00962	0,01282	0,01405	0,0224	0,03283
13898,13465	0,01062	0,00956	0,01275	0,01437	0,02217	0,03256
13893,2465	0,01059	0,00955	0,0126	0,01458	0,02187	0,03207
13888,36195	0,01049	0,00957	0,0124	0,01466	0,02156	0,03138
13883,481	0,01031	0,00958	0,01219	0,01461	0,02129	0,03058
13878,60363	0,01007	0,00956	0,012	0,01443	0,02108	0,02975
13873,72985	0,00978	0,0095	0,01186	0,01415	0,02095	0,02898
13868,85964	0,00947	0,00939	0,01179	0,01382	0,0209	0,02831
13863,99302	0,00917	0,00924	0,01178	0,01347	0,0209	0,02778
13859,12996	0,0089	0,00907	0,01182	0,01312	0,02092	0,02739
13854,27048	0,00869	0,00888	0,01188	0,01278	0,02091	0,02712
13849,41456	0,00853	0,0087	0,01192	0,01245	0,02086	0,02696
13844,5622	0,00842	0,00854	0,01193	0,01211	0,02074	0,0269
13839,7134	0,00836	0,00839	0,0119	0,01177	0,02056	0,02697
13834,86816	0,00834	0,00826	0,01183	0,01141	0,02031	0,02718
13830,02646	0,00834	0,00816	0,01174	0,01104	0,02002	0,02755
13825,1883	0,00835	0,00808	0,01166	0,0107	0,01971	0,02808
13820,35369	0,00837	0,00802	0,01162	0,01041	0,0194	0,02874
13815,52262	0,0084	0,00799	0,01164	0,01023	0,01911	0,02946
13810,69508	0,00843	0,00798	0,01173	0,01018	0,01884	0,03013
13805,87107	0,00846	0,00801	0,01186	0,01029	0,0186	0,03065
13801,05059	0,00849	0,00804	0,01202	0,01056	0,01839	0,03092
13796,23363	0,00851	0,00809	0,01218	0,01096	0,01819	0,03087
13791,42018	0,00852	0,00811	0,01229	0,01144	0,01803	0,0305
13786,61026	0,0085	0,00811	0,01233	0,01194	0,01789	0,02988
13781,80384	0,00846	0,00807	0,01229	0,01238	0,01781	0,0291
13777,00093	0,00838	0,00799	0,01215	0,0127	0,01779	0,02832
13772,20152	0,00826	0,00786	0,01193	0,01286	0,01785	0,02768
13767,40561	0,00812	0,00771	0,01165	0,01285	0,01798	0,02727
13762,6132	0,00794	0,00756	0,01135	0,01266	0,01817	0,02716
13757,82428	0,00775	0,00743	0,01105	0,01233	0,01839	0,02732
13753,03884	0,00754	0,00734	0,01078	0,01191	0,01859	0,02769
13748,25689	0,00733	0,0073	0,01054	0,01146	0,01874	0,02816
13743,47842	0,00713	0,00729	0,01035	0,01101	0,01878	0,0286
13738,70343	0,00694	0,0073	0,0102	0,01062	0,0187	0,02892
13733,93191	0,00679	0,0073	0,01008	0,01029	0,0185	0,02905
13729,16386	0,00667	0,00726	0,00998	0,01005	0,01821	0,029
13724,39927	0,00662	0,00717	0,00989	0,00987	0,01788	0,0288
13719,63814	0,00663	0,00701	0,00981	0,00974	0,01759	0,02852
13714,88048	0,00672	0,00679	0,00972	0,00961	0,0174	0,02823
13710,12626	0,00686	0,00654	0,00963	0,00946	0,01737	0,02799
13705,3755	0,00705	0,00629	0,00953	0,00926	0,01755	0,02783
13700,62818	0,00727	0,00608	0,00943	0,00899	0,01791	0,02774
13695,8843	0,00748	0,00594	0,00933	0,00864	0,01844	0,02769
13691,14387	0,00765	0,0059	0,00924	0,00823	0,01905	0,02763
13686,40686	0,00776	0,00595	0,00916	0,00777	0,01966	0,02751
13681,67329	0,00778	0,00608	0,00909	0,0073	0,02019	0,02733
13676,94315	0,00771	0,00626	0,00904	0,00684	0,02057	0,02709
13672,21643	0,00755	0,00645	0,00901	0,00643	0,02075	0,02683
13667,49313	0,00733	0,00659	0,00899	0,00612	0,02072	0,02658
13662,77325	0,00708	0,00666	0,00898	0,00592	0,02048	0,0264
13658,05678	0,00682	0,00661	0,00897	0,00586	0,02007	0,02631
13653,34372	0,0066	0,00645	0,00895	0,00593	0,01955	0,0263
13648,63406	0,00643	0,00619	0,0089	0,00611	0,01895	0,02634
13643,92781	0,00633	0,00585	0,00882	0,0064	0,01833	0,02636
13639,22495	0,0063	0,00547	0,00868	0,00674	0,01773	0,02631
13634,52549	0,00634	0,0051	0,00849	0,00711	0,01718	0,02613
13629,82942	0,0064	0,00479	0,00826	0,00747	0,0167	0,02579
13625,13673	0,00647	0,00458	0,00801	0,00778	0,01632	0,0253
13620,44743	0,00652	0,00449	0,00775	0,00802	0,01604	0,02472
13615,76151	0,00652	0,00455	0,00752	0,00819	0,01588	0,02415
13611,07897	0,00644	0,00473	0,00733	0,00826	0,01582	0,02367
13606,39979	0,00629	0,005	0,00722	0,00825	0,01586	0,02337
13601,72399	0,00607	0,00534	0,00719	0,00817	0,01598	0,02334
13597,05155	0,0058	0,00568	0,00724	0,00801	0,01614	0,02359
13592,38247	0,0055	0,00596	0,00738	0,00782	0,01631	0,0241
13587,71675	0,00522	0,00616	0,00758	0,0076	0,01647	0,02483
13583,05439	0,00498	0,00623	0,00783	0,00738	0,01659	0,0257
13578,39537	0,00482	0,00618	0,0081	0,00719	0,01667	0,0266
13573,7397	0,00477	0,00602	0,00836	0,00706	0,01673	0,02746
13569,08738	0,00482	0,00578	0,00859	0,00701	0,01678	0,02819
13564,4384	0,00497	0,00551	0,00878	0,00706	0,01685	0,02875
13559,79275	0,0052	0,00527	0,00891	0,00719	0,01696	0,02911
13555,15043	0,00546	0,00509	0,00898	0,00739	0,01709	0,02928
13550,51145	0,00571	0,005	0,00898	0,00763	0,01723	0,02926
13545,87578	0,00591	0,005	0,00891	0,00785	0,01734	0,0291
13541,24345	0,00601	0,00506	0,0088	0,00801	0,01737	0,02883
13536,61442	0,00599	0,00516	0,00864	0,00805	0,01729	0,02847
13531,98872	0,00584	0,00524	0,00846	0,00794	0,01711	0,02806
13527,36632	0,00559	0,00526	0,00827	0,00767	0,01686	0,02764
13522,74724	0,00526	0,00519	0,0081	0,00726	0,01661	0,02723
13518,13145	0,0049	0,00502	0,00795	0,00674	0,01646	0,02686
13513,51897	0,00455	0,00476	0,00784	0,00618	0,01651	0,02655
13508,90979	0,00426	0,00446	0,00779	0,00562	0,01683	0,02631
13504,3039	0,00406	0,00415	0,0078	0,00514	0,01745	0,02614
13499,70129	0,00395	0,00388	0,00785	0,00477	0,01833	0,02603
13495,10198	0,00395	0,0037	0,00793	0,00454	0,01935	0,02596
13490,50595	0,00402	0,00361	0,00803	0,00443	0,02036	0,02591
13485,9132	0,00414	0,00363	0,00811	0,00443	0,02115	0,02585
13481,32372	0,00428	0,00371	0,00814	0,00449	0,02156	0,02577
13476,73752	0,00442	0,00381	0,0081	0,00458	0,02145	0,02566
13472,15458	0,00451	0,0039	0,00798	0,00465	0,02078	0,02553
13467,57491	0,00456	0,00393	0,00777	0,0047	0,01959	0,02538
13462,9985	0,00457	0,00388	0,00747	0,00472	0,01803	0,02525
13458,42535	0,00452	0,00377	0,0071	0,00473	0,01628	0,02515
13453,85546	0,00445	0,00361	0,00671	0,00474	0,01457	0,02509
13449,28882	0,00435	0,00345	0,00631	0,00479	0,01311	0,02507
13444,72542	0,00424	0,00334	0,00596	0,00487	0,01205	0,02508
13440,16528	0,00412	0,00331	0,0057	0,005	0,01146	0,02509
13435,60837	0,004	0,0034	0,00554	0,00514	0,01133	0,02507
13431,0547	0,00387	0,00358	0,0055	0,00526	0,01155	0,02499
13426,50426	0,00374	0,00383	0,00558	0,00532	0,012	0,02484
13421,95706	0,00362	0,00409	0,00576	0,0053	0,01252	0,02462
13417,41308	0,0035	0,0043	0,006	0,00519	0,01298	0,02434
13412,87233	0,0034	0,00441	0,00628	0,00498	0,01328	0,02402
13408,33479	0,00332	0,00439	0,00653	0,00472	0,01339	0,02372
13403,80048	0,00328	0,00425	0,00672	0,00446	0,01333	0,02345
13399,26937	0,00328	0,00401	0,00683	0,00425	0,01315	0,02325
13394,74148	0,0033	0,00374	0,00682	0,00415	0,01292	0,02311
13390,2168	0,00335	0,00351	0,00671	0,00421	0,01271	0,02304
13385,69532	0,0034	0,00338	0,0065	0,00442	0,01257	0,02301
13381,17704	0,00345	0,0034	0,00622	0,00477	0,01252	0,023
13376,66195	0,00347	0,00357	0,0059	0,00521	0,01254	0,02296
13372,15006	0,00346	0,00386	0,00557	0,00567	0,01261	0,02289
13367,64136	0,00342	0,00421	0,00528	0,00608	0,01272	0,02275
13363,13585	0,00336	0,00452	0,00505	0,00636	0,01286	0,02253
13358,63352	0,00328	0,0047	0,00488	0,00648	0,01301	0,02223
13354,13436	0,00321	0,00467	0,00479	0,00639	0,01322	0,02185
13349,63839	0,00316	0,00439	0,00477	0,00612	0,0135	0,02139
13345,14559	0,00316	0,00387	0,0048	0,00568	0,01388	0,02087
13340,65596	0,0032	0,00316	0,00487	0,00514	0,01436	0,02029
13336,16949	0,00328	0,00234	0,00496	0,00455	0,0149	0,01969
13331,68619	0,00341	0,00153	0,00505	0,00396	0,01545	0,01909
13327,20605	0,00355	8,13897E-4	0,00514	0,00342	0,01592	0,01856
13322,72906	0,0037	2,93863E-4	0,0052	0,00298	0,01623	0,01813
13318,25523	0,00382	1,87128E-5	0,00524	0,00266	0,01631	0,01785
13313,78455	0,00392	0	0,00525	0,00246	0,01611	0,01779
13309,31701	0,00397	2,09746E-4	0,00523	0,00239	0,01563	0,01795
13304,85262	0,00398	5,8957E-4	0,00517	0,00244	0,01492	0,01834
13300,39136	0,00395	0,00106	0,00508	0,0026	0,01408	0,01893
13295,93325	0,00389	0,00156	0,00495	0,00284	0,01323	0,01966
13291,47826	0,00381	0,00201	0,00478	0,00315	0,01247	0,02046
13287,02641	0,00372	0,00239	0,00458	0,00348	0,0119	0,02125
13282,57768	0,00362	0,00266	0,00437	0,00379	0,01159	0,02196
13278,13208	0,00353	0,00285	0,00417	0,00406	0,01151	0,02253
13273,6896	0,00344	0,00297	0,00399	0,00425	0,01164	0,02293
13269,25023	0,00337	0,00305	0,00385	0,00435	0,01188	0,02317
13264,81398	0,00331	0,00311	0,00377	0,00434	0,01214	0,02326
13260,38083	0,00328	0,00318	0,00375	0,00425	0,01232	0,02325
13255,9508	0,00327	0,00325	0,00379	0,0041	0,01235	0,02316
13251,52386	0,0033	0,00331	0,00387	0,00393	0,01221	0,02303
13247,10003	0,00336	0,00336	0,00399	0,00378	0,01191	0,02288
13242,6793	0,00346	0,00338	0,00411	0,00368	0,0115	0,02271
13238,26166	0,00358	0,00335	0,00422	0,00366	0,01105	0,02252
13233,84711	0,00372	0,00329	0,0043	0,00371	0,01063	0,02232
13229,43565	0,00385	0,0032	0,00436	0,00383	0,0103	0,0221
13225,02727	0,00395	0,00311	0,00441	0,00399	0,01009	0,02187
13220,62197	0,00402	0,00302	0,00446	0,00417	0,01002	0,02166
13216,21975	0,00403	0,00297	0,00451	0,00436	0,01006	0,02149
13211,82061	0,00399	0,00294	0,0046	0,00453	0,01019	0,02138
13207,42453	0,00389	0,00296	0,00471	0,00469	0,01037	0,02136
13203,03153	0,00375	0,00299	0,00485	0,00484	0,01057	0,0214
13198,64159	0,00359	0,00302	0,005	0,00498	0,01077	0,0215
13194,25471	0,00343	0,00303	0,00513	0,00511	0,01097	0,0216
13189,87089	0,00329	0,003	0,00521	0,00522	0,01116	0,02168
13185,49013	0,00319	0,00293	0,00522	0,0053	0,01136	0,02168
13181,11241	0,00313	0,00282	0,00516	0,00532	0,01156	0,02159
13176,73775	0,00312	0,0027	0,00501	0,00526	0,01175	0,0214
13172,36613	0,00315	0,00259	0,00479	0,0051	0,01193	0,02114
13167,99756	0,0032	0,00252	0,00451	0,00485	0,01206	0,02086
13163,63202	0,00324	0,00252	0,00422	0,00453	0,01214	0,02062
13159,26952	0,00326	0,00259	0,00393	0,00417	0,01213	0,02047
13154,91006	0,00324	0,00272	0,00367	0,00381	0,01204	0,02045
13150,55362	0,00318	0,00289	0,00346	0,00349	0,01187	0,02059
13146,20021	0,00307	0,00304	0,00329	0,00325	0,01164	0,02085
13141,84983	0,00293	0,00313	0,00318	0,00309	0,01138	0,0212
13137,50246	0,00278	0,00313	0,0031	0,003	0,01114	0,02158
13133,15812	0,00263	0,00301	0,00305	0,00297	0,01093	0,02189
13128,81678	0,00251	0,00276	0,00301	0,00295	0,01079	0,02209
13124,47846	0,00242	0,00241	0,00299	0,00291	0,01074	0,02212
13120,14315	0,00238	0,00201	0,00297	0,00283	0,01078	0,02196
13115,81084	0,00239	0,00161	0,00297	0,00271	0,01094	0,02162
13111,48153	0,00243	0,00127	0,00301	0,00255	0,01119	0,02116
13107,15522	0,00249	0,00105	0,0031	0,0024	0,01153	0,02062
13102,83191	0,00254	9,75904E-4	0,00325	0,00228	0,01195	0,02006
13098,51159	0,00258	0,00105	0,00346	0,00222	0,0124	0,01955
13094,19426	0,0026	0,00127	0,00374	0,00224	0,01284	0,0191
13089,87991	0,00258	0,00158	0,00406	0,00234	0,01322	0,01874
13085,56855	0,00253	0,00193	0,0044	0,0025	0,01348	0,01844
13081,26017	0,00246	0,00227	0,00474	0,00269	0,01358	0,01819
13076,95476	0,00239	0,00256	0,00502	0,00288	0,01347	0,01794
13072,65233	0,00231	0,00276	0,00522	0,00304	0,01316	0,01768
13068,35287	0,00224	0,00285	0,00531	0,00317	0,01265	0,01738
13064,05638	0,00219	0,00283	0,00528	0,00325	0,012	0,01707
13059,76285	0,00214	0,00273	0,00513	0,0033	0,01128	0,01677
13055,47228	0,00211	0,00256	0,00488	0,00335	0,01059	0,01652
13051,18468	0,00208	0,00236	0,00456	0,00341	0,00999	0,01637
13046,90002	0,00206	0,00217	0,00419	0,00347	0,00957	0,01635
13042,61833	0,00204	0,00201	0,00383	0,00355	0,00935	0,01647
13038,33958	0,00203	0,0019	0,0035	0,00361	0,00933	0,0167
13034,06377	0,00203	0,00185	0,00322	0,00364	0,00947	0,017
13029,79091	0,00203	0,00187	0,00299	0,00361	0,00969	0,01728
13025,52099	0,00206	0,00194	0,00283	0,00352	0,00991	0,01747
13021,25401	0,00209	0,00205	0,00272	0,00336	0,01006	0,0175
13016,98996	0,00212	0,00218	0,00266	0,00316	0,01007	0,01732
13012,72884	0,00215	0,00229	0,00263	0,00294	0,0099	0,01694
13008,47065	0,00217	0,00238	0,00263	0,00274	0,00956	0,01642
13004,21539	0,00216	0,00241	0,00266	0,0026	0,00907	0,01585
12999,96305	0,00212	0,00239	0,00272	0,00252	0,00849	0,01535
12995,71362	0,00206	0,00233	0,00282	0,00252	0,00788	0,01503
12991,46712	0,00199	0,00224	0,00295	0,00258	0,00732	0,01498
12987,22352	0,00191	0,00216	0,00309	0,00267	0,00685	0,01524
12982,98284	0,00184	0,0021	0,00323	0,00278	0,00653	0,0158
12978,74507	0,0018	0,0021	0,00333	0,00286	0,00636	0,01657
12974,51019	0,0018	0,00215	0,00339	0,0029	0,00636	0,01743
12970,27822	0,00183	0,00226	0,00338	0,00288	0,0065	0,01824
12966,04915	0,00189	0,00241	0,0033	0,0028	0,00676	0,01887
12961,82297	0,00197	0,00255	0,00318	0,00267	0,00709	0,01922
12957,59969	0,00205	0,00267	0,00304	0,0025	0,00744	0,01924
12953,3793	0,00211	0,00273	0,00293	0,0023	0,0078	0,01896
12949,16179	0,00213	0,0027	0,00288	0,00208	0,0081	0,01846
12944,94716	0,00211	0,0026	0,00291	0,00185	0,00834	0,01786
12940,73542	0,00204	0,00244	0,00303	0,00161	0,0085	0,01729
12936,52655	0,00192	0,00223	0,00323	0,00139	0,00858	0,01689
12932,32056	0,00176	0,00202	0,00347	0,00117	0,00858	0,01672
12928,11744	0,00159	0,00182	0,0037	9,94138E-4	0,00853	0,01681
12923,91718	0,00142	0,00166	0,00387	8,62007E-4	0,00844	0,01713
12919,7198	0,00127	0,00155	0,00396	7,93872E-4	0,00834	0,0176
12915,52527	0,00116	0,00149	0,00395	8,01797E-4	0,00822	0,01812
12911,33361	0,0011	0,00145	0,00386	8,9079E-4	0,00812	0,01859
12907,1448	0,00109	0,00142	0,00372	0,00106	0,00801	0,01892
12902,95885	0,00113	0,0014	0,00359	0,00129	0,00792	0,01906
12898,77575	0,0012	0,00136	0,00351	0,00156	0,00784	0,01901
12894,5955	0,00127	0,00133	0,00352	0,00185	0,00778	0,01881
12890,41809	0,00134	0,00129	0,00361	0,00214	0,00775	0,01852
12886,24353	0,00137	0,00126	0,00377	0,00239	0,00779	0,01822
12882,0718	0,00136	0,00126	0,00395	0,00258	0,00791	0,01798
12877,90291	0,0013	0,00127	0,0041	0,00271	0,00814	0,01783
12873,73686	0,00121	0,00132	0,00417	0,00275	0,00848	0,0178
12869,57363	0,0011	0,00138	0,00412	0,0027	0,00894	0,01788
12865,41324	9,93171E-4	0,00144	0,00395	0,00255	0,00948	0,01803
12861,25567	9,1951E-4	0,00151	0,00368	0,00231	0,01007	0,01822
12857,10092	8,9302E-4	0,00158	0,00338	0,002	0,01065	0,01841
12852,94899	9,21266E-4	0,00164	0,00309	0,00162	0,01119	0,01857
12848,79988	9,99572E-4	0,0017	0,00289	0,00122	0,01163	0,01869
12844,65358	0,00111	0,00176	0,00282	8,32532E-4	0,01194	0,01878
12840,51009	0,00123	0,00182	0,00289	4,96173E-4	0,01212	0,01884
12836,36941	0,00134	0,00187	0,00307	2,5178E-4	0,01216	0,01891
12832,23154	0,00141	0,0019	0,00334	1,29062E-4	0,01207	0,01899
12828,09646	0,00142	0,00189	0,00362	1,42163E-4	0,01186	0,01907
12823,96419	0,00139	0,00183	0,00386	2,85688E-4	0,01156	0,01915
12819,83472	0,00133	0,00171	0,004	5,34201E-4	0,01117	0,0192
12815,70803	0,00125	0,00153	0,00402	8,45675E-4	0,01072	0,01918
12811,58414	0,00119	0,00131	0,00394	0,00117	0,01022	0,01907
12807,46304	0,00117	0,00108	0,00378	0,00145	0,00972	0,01885
12803,34472	0,00121	8,60647E-4	0,00358	0,00165	0,00925	0,01853
12799,22919	0,00131	6,9834E-4	0,00338	0,00174	0,00889	0,01812
12795,11643	0,00146	6,16771E-4	0,00323	0,00172	0,00869	0,01766
12791,00645	0,00162	6,29565E-4	0,00312	0,0016	0,0087	0,0172
12786,89925	0,00179	7,33637E-4	0,00305	0,00141	0,00897	0,01677
12782,79481	0,00191	9,09989E-4	0,003	0,00122	0,00949	0,01642
12778,69315	0,00197	0,00113	0,00292	0,00105	0,01022	0,01616
12774,59425	0,00196	0,00135	0,00278	9,50558E-4	0,01109	0,016
12770,49811	0,00188	0,00156	0,00256	9,4095E-4	0,01198	0,01593
12766,40474	0,00174	0,00172	0,00227	0,00103	0,01278	0,01591
12762,31412	0,00156	0,00182	0,00192	0,00119	0,01338	0,01594
12758,22625	0,00136	0,00189	0,00155	0,00141	0,01369	0,01597
12754,14114	0,00117	0,00193	0,00121	0,00165	0,01367	0,01601
12750,05878	0,00101	0,00196	9,49533E-4	0,00187	0,01333	0,01607
12745,97916	8,73038E-4	0,00201	8,00814E-4	0,00203	0,01272	0,01616
12741,90229	7,73435E-4	0,00208	7,83126E-4	0,00212	0,01193	0,0163
12737,82815	7,03153E-4	0,00217	8,94894E-4	0,00213	0,01107	0,01654
12733,75676	6,56203E-4	0,00226	0,00112	0,00205	0,01022	0,01687
12729,6881	6,27625E-4	0,00234	0,00141	0,00192	0,00947	0,0173
12725,62217	6,15524E-4	0,00237	0,00175	0,00175	0,00889	0,01781
12721,55897	6,21521E-4	0,00234	0,00208	0,00159	0,00848	0,01836
12717,4985	6,49604E-4	0,00224	0,00237	0,00145	0,00825	0,01889
12713,44075	7,03754E-4	0,00207	0,00261	0,00137	0,00819	0,01935
12709,38573	7,85144E-4	0,00183	0,00279	0,00136	0,00828	0,01969
12705,33342	8,8978E-4	0,00156	0,00291	0,00144	0,0085	0,0199
12701,28383	0,00101	0,00127	0,00298	0,00158	0,00881	0,01996
12697,23695	0,00112	0,00101	0,00302	0,00178	0,00921	0,01987
12693,19279	0,00121	8,0444E-4	0,00305	0,002	0,00965	0,01968
12689,15133	0,00126	6,59042E-4	0,00308	0,00222	0,01008	0,01941
12685,11257	0,00125	5,84398E-4	0,00312	0,00239	0,01047	0,0191
12681,07652	0,00117	5,75377E-4	0,00317	0,00249	0,01073	0,01876
12677,04317	0,00103	6,18555E-4	0,00321	0,00251	0,01082	0,0184
12673,01251	8,37719E-4	6,96126E-4	0,00323	0,00242	0,01068	0,01803
12668,98455	6,14583E-4	7,90342E-4	0,00321	0,00223	0,01032	0,01766
12664,95928	3,91273E-4	8,87478E-4	0,00312	0,00196	0,00974	0,01728
12660,9367	1,98175E-4	9,80454E-4	0,00295	0,00164	0,00902	0,01692
12656,91681	6,18024E-5	0,00107	0,00271	0,0013	0,00824	0,0166
12652,8996	0	0,00116	0,00241	9,93068E-4	0,00754	0,01637
12648,88507	1,86621E-5	0,00127	0,00207	7,4267E-4	0,00701	0,01627
12644,87322	1,10674E-4	0,00139	0,00175	5,81637E-4	0,00675	0,01635
12640,86404	2,5737E-4	0,00154	0,00149	5,2631E-4	0,0068	0,01661
12636,85754	4,32256E-4	0,00171	0,00132	5,78609E-4	0,00715	0,01705
12632,85371	6,06268E-4	0,0019	0,00128	7,26021E-4	0,00776	0,01764
12628,85254	7,53453E-4	0,00207	0,00137	9,43884E-4	0,00852	0,01832
12624,85404	8,55859E-4	0,00221	0,00158	0,0012	0,0093	0,01901
12620,8582	9,06564E-4	0,00228	0,00187	0,00146	0,01	0,01963
12616,86503	9,10183E-4	0,00228	0,0022	0,00169	0,01049	0,02012
12612,8745	8,80797E-4	0,00218	0,00252	0,00187	0,01071	0,02043
12608,88664	8,3783E-4	0,00198	0,00277	0,00198	0,01065	0,02054
12604,90142	8,00935E-4	0,00171	0,00293	0,00203	0,01032	0,02048
12600,91885	7,85151E-4	0,00137	0,00299	0,00204	0,00979	0,02026
12596,93893	7,97518E-4	0,00101	0,00296	0,00202	0,00915	0,01993
12592,96166	8,35963E-4	6,68666E-4	0,00287	0,002	0,00849	0,01952
12588,98702	8,90634E-4	3,76148E-4	0,00273	0,002	0,00791	0,01908
12585,01502	9,47233E-4	1,64409E-4	0,00257	0,00203	0,00746	0,01862
12581,04566	9,9136E-4	5,23453E-5	0,00241	0,00209	0,00717	0,01816
12577,07893	0,00101	4,58913E-5	0,00223	0,00217	0,00705	0,01771
12573,11483	0,00101	1,3792E-4	0,00203	0,00224	0,00706	0,01728
12569,15336	9,80216E-4	3,10144E-4	0,0018	0,00228	0,00716	0,01688
12565,19452	9,40786E-4	5,36592E-4	0,00152	0,00224	0,00731	0,01653
12561,2383	9,02605E-4	7,88014E-4	0,0012	0,00211	0,00745	0,01625
12557,2847	8,7828E-4	0,00104	8,57335E-4	0,00189	0,00756	0,01605
12553,33371	8,76356E-4	0,00126	5,27235E-4	0,00158	0,00763	0,01593
12549,38534	8,99327E-4	0,00144	2,51557E-4	0,00122	0,00766	0,01587
12545,43959	9,43532E-4	0,00158	6,81308E-5	8,58045E-4	0,00767	0,01585
12541,49644	0,001	0,00167	0	5,44595E-4	0,00768	0,01581
12537,5559	0,00106	0,00173	4,74709E-5	3,3368E-4	0,00771	0,01572
12533,61796	0,00112	0,00177	1,85887E-4	2,63968E-4	0,00776	0,01554
12529,68263	0,00116	0,00179	3,70177E-4	3,51578E-4	0,00782	0,01526
12525,7499	0,0012	0,00181	5,45277E-4	5,84905E-4	0,00787	0,01489
12521,81976	0,00123	0,00183	6,59774E-4	9,24783E-4	0,00788	0,01445
12517,89222	0,00127	0,00184	6,79084E-4	0,00131	0,00782	0,01399
12513,96727	0,00131	0,00184	5,94495E-4	0,00167	0,00768	0,01356
12510,04491	0,00136	0,00182	4,25544E-4	0,00194	0,00745	0,01321
12506,12513	0,00141	0,00176	2,14985E-4	0,00206	0,00716	0,01295
12502,20794	0,00146	0,00167	1,77298E-5	0,00201	0,00686	0,0128