wavenumber	20째C	40째C	45째C	50째C
19998,3995	0,00862	0,0208	0,02195	0,02457
19987,99624	0,00867	0,02074	0,02184	0,02436
19977,60412	0,00893	0,02065	0,02173	0,02398
19967,22314	0,00934	0,02051	0,02166	0,02347
19956,85328	0,00985	0,02034	0,02168	0,0229
19946,49451	0,01038	0,02013	0,02176	0,02236
19936,14682	0,01083	0,01991	0,02186	0,02194
19925,8102	0,01117	0,01967	0,02192	0,02171
19915,48462	0,01137	0,01941	0,02186	0,02175
19905,17007	0,01142	0,01916	0,02165	0,02205
19894,86653	0,01136	0,01891	0,02125	0,02259
19884,57398	0,01123	0,01867	0,0207	0,02328
19874,2924	0,01107	0,01844	0,02006	0,02399
19864,02179	0,0109	0,01822	0,0194	0,0246
19853,76211	0,01074	0,01802	0,0188	0,02498
19843,51335	0,01058	0,01784	0,01833	0,02506
19833,2755	0,01041	0,01767	0,01801	0,02482
19823,04853	0,01021	0,01751	0,01785	0,02428
19812,83243	0,00997	0,01735	0,01781	0,02353
19802,62719	0,00967	0,01721	0,01785	0,02271
19792,43278	0,00935	0,01706	0,01791	0,02194
19782,24919	0,009	0,0169	0,01795	0,02132
19772,0764	0,00867	0,01674	0,01796	0,02091
19761,91439	0,00837	0,01658	0,01794	0,02072
19751,76315	0,00811	0,0164	0,01789	0,0207
19741,62266	0,0079	0,01621	0,01783	0,02077
19731,4929	0,00772	0,01601	0,01776	0,02082
19721,37386	0,00756	0,01581	0,01764	0,02079
19711,26551	0,00741	0,01561	0,01747	0,02062
19701,16785	0,00725	0,01541	0,01719	0,0203
19691,08085	0,00709	0,01522	0,01677	0,01987
19681,0045	0,00696	0,01505	0,0162	0,01941
19670,93878	0,00688	0,0149	0,0155	0,01898
19660,88367	0,00686	0,01479	0,0147	0,01866
19650,83916	0,00694	0,01471	0,0139	0,01847
19640,80523	0,00712	0,01467	0,01317	0,01844
19630,78187	0,00738	0,01468	0,0126	0,01851
19620,76905	0,00769	0,01474	0,01227	0,01863
19610,76676	0,008	0,01485	0,0122	0,01873
19600,77498	0,00829	0,01501	0,01241	0,01877
19590,79371	0,00849	0,01522	0,01287	0,01872
19580,82291	0,00861	0,01547	0,01352	0,01857
19570,86258	0,00862	0,01577	0,0143	0,01837
19560,91269	0,00856	0,0161	0,01517	0,01819
19550,97324	0,00844	0,01645	0,01608	0,01809
19541,0442	0,0083	0,01682	0,017	0,01815
19531,12556	0,00819	0,01721	0,0179	0,0184
19521,2173	0,00812	0,01759	0,01877	0,01887
19511,31941	0,00811	0,01797	0,01958	0,01953
19501,43187	0,00816	0,01834	0,0203	0,02034
19491,55466	0,00826	0,01869	0,02088	0,02122
19481,68777	0,00841	0,01901	0,02128	0,0221
19471,83118	0,00859	0,0193	0,02147	0,02289
19461,98488	0,00878	0,01955	0,02143	0,02356
19452,14884	0,00898	0,01977	0,02118	0,02406
19442,32306	0,00918	0,01995	0,02077	0,0244
19432,50751	0,00938	0,02009	0,02028	0,02461
19422,70219	0,00955	0,0202	0,01979	0,02474
19412,90707	0,0097	0,02028	0,0194	0,02485
19403,12214	0,0098	0,02033	0,01917	0,02501
19393,34738	0,00985	0,02037	0,01913	0,02526
19383,58279	0,00986	0,02038	0,01927	0,0256
19373,82833	0,00982	0,02039	0,01956	0,02602
19364,084	0,00976	0,02039	0,01994	0,02647
19354,34977	0,00971	0,0204	0,02036	0,02687
19344,62565	0,00971	0,02041	0,02076	0,02715
19334,9116	0,00979	0,02044	0,02111	0,02725
19325,20761	0,01	0,02049	0,02141	0,02714
19315,51367	0,01033	0,02057	0,02168	0,02685
19305,82977	0,01079	0,02067	0,02193	0,02644
19296,15588	0,01135	0,0208	0,02218	0,02602
19286,49199	0,01197	0,02097	0,02244	0,02572
19276,83809	0,01257	0,02116	0,02269	0,02564
19267,19415	0,0131	0,02139	0,0229	0,02586
19257,56017	0,0135	0,02165	0,02303	0,02642
19247,93613	0,01372	0,02194	0,02306	0,02728
19238,32201	0,01374	0,02226	0,02299	0,02834
19228,7178	0,01358	0,02261	0,02285	0,02948
19219,12349	0,01326	0,02298	0,02271	0,03056
19209,53905	0,01287	0,02337	0,02264	0,03145
19199,96447	0,01247	0,02377	0,02274	0,03211
19190,39975	0,01217	0,02419	0,02306	0,03251
19180,84485	0,01203	0,02463	0,02364	0,03273
19171,29977	0,01211	0,02507	0,02446	0,03285
19161,76449	0,01243	0,02551	0,02547	0,03301
19152,239	0,01296	0,02596	0,02657	0,03329
19142,72328	0,01365	0,0264	0,02766	0,03377
19133,21732	0,01441	0,02684	0,02863	0,03443
19123,7211	0,01515	0,02727	0,02941	0,03523
19114,23461	0,01578	0,02769	0,02996	0,03605
19104,75783	0,01624	0,02809	0,0303	0,03679
19095,29074	0,01651	0,02847	0,03047	0,03732
19085,83334	0,01659	0,02884	0,03055	0,03757
19076,3856	0,01657	0,02918	0,03063	0,03754
19066,94752	0,01651	0,0295	0,03076	0,03728
19057,51908	0,01652	0,0298	0,03099	0,03688
19048,10025	0,01669	0,03006	0,03135	0,03646
19038,69104	0,01706	0,0303	0,03182	0,03616
19029,29142	0,01764	0,03052	0,03237	0,03605
19019,90138	0,0184	0,03071	0,03296	0,0362
19010,5209	0,01926	0,03089	0,03356	0,03659
19001,14997	0,0201	0,03105	0,03413	0,03719
18991,78858	0,02082	0,0312	0,03466	0,0379
18982,43671	0,02132	0,03135	0,03513	0,03866
18973,09434	0,02156	0,0315	0,03556	0,03937
18963,76147	0,02153	0,03166	0,03595	0,03999
18954,43807	0,02125	0,03184	0,03629	0,04051
18945,12413	0,02081	0,03204	0,03658	0,04094
18935,81965	0,02032	0,03227	0,03683	0,04132
18926,52459	0,01987	0,03254	0,03704	0,04169
18917,23896	0,01956	0,03285	0,0372	0,04208
18907,96273	0,01947	0,0332	0,03733	0,04252
18898,6959	0,01963	0,03359	0,03747	0,04302
18889,43844	0,02004	0,03403	0,03765	0,04357
18880,19034	0,02067	0,03451	0,0379	0,04418
18870,95159	0,02145	0,03503	0,03827	0,04482
18861,72218	0,02232	0,03559	0,03877	0,04548
18852,50208	0,02318	0,03617	0,03942	0,04616
18843,2913	0,02398	0,03677	0,04018	0,04685
18834,0898	0,02465	0,03739	0,04101	0,04752
18824,89758	0,02516	0,03802	0,04185	0,04817
18815,71463	0,0255	0,03865	0,04262	0,04877
18806,54092	0,02569	0,03927	0,04325	0,04929
18797,37645	0,02577	0,03988	0,0437	0,04971
18788,22121	0,02579	0,04047	0,04394	0,05003
18779,07517	0,02582	0,04105	0,044	0,05026
18769,93832	0,0259	0,04162	0,04392	0,05044
18760,81066	0,02608	0,04217	0,04379	0,0506
18751,69216	0,02639	0,04271	0,04373	0,05083
18742,58282	0,02682	0,04324	0,04383	0,05117
18733,48261	0,02736	0,04377	0,04419	0,05167
18724,39153	0,02798	0,04431	0,04484	0,05235
18715,30956	0,02864	0,04485	0,04581	0,0532
18706,23669	0,02932	0,04542	0,04702	0,05419
18697,17291	0,02999	0,04602	0,04841	0,05525
18688,11819	0,03065	0,04665	0,04986	0,05633
18679,07253	0,0313	0,04731	0,05125	0,05739
18670,03592	0,03195	0,04802	0,05248	0,0584
18661,00833	0,03261	0,04877	0,0535	0,05937
18651,98976	0,03327	0,04956	0,05429	0,06033
18642,9802	0,03392	0,05039	0,05489	0,06132
18633,97962	0,03454	0,05126	0,05537	0,06236
18624,98802	0,03508	0,05216	0,05581	0,06348
18616,00538	0,03555	0,0531	0,05631	0,06467
18607,03169	0,03593	0,05406	0,05692	0,06587
18598,06694	0,03625	0,05504	0,05766	0,06703
18589,11111	0,03655	0,05604	0,05851	0,06807
18580,16418	0,03691	0,05704	0,05944	0,06893
18571,22616	0,03738	0,05806	0,06037	0,06957
18562,29702	0,03802	0,05909	0,06125	0,07001
18553,37674	0,03888	0,06012	0,06204	0,07029
18544,46533	0,03993	0,06116	0,06274	0,07053
18535,56275	0,04116	0,06221	0,06338	0,07082
18526,66901	0,04249	0,06326	0,06404	0,07128
18517,78408	0,04385	0,06434	0,0648	0,072
18508,90796	0,04519	0,06544	0,06573	0,07302
18500,04062	0,04644	0,06656	0,06689	0,07432
18491,18207	0,04759	0,06772	0,0683	0,07585
18482,33228	0,04867	0,06891	0,06991	0,07751
18473,49124	0,0497	0,07015	0,07168	0,0792
18464,65894	0,05074	0,07143	0,07352	0,08079
18455,83536	0,05182	0,07276	0,07534	0,08224
18447,0205	0,05297	0,07414	0,07709	0,08352
18438,21434	0,0542	0,07557	0,07872	0,08464
18429,41686	0,05548	0,07706	0,08025	0,08569
18420,62806	0,05679	0,0786	0,08171	0,08676
18411,84792	0,05811	0,08019	0,08315	0,08794
18403,07643	0,05942	0,08183	0,08463	0,08932
18394,31357	0,06075	0,08351	0,08619	0,09096
18385,55934	0,06213	0,08524	0,08787	0,09285
18376,81372	0,06362	0,08701	0,08963	0,09497
18368,07669	0,06525	0,08883	0,09147	0,09724
18359,34825	0,06707	0,09069	0,09334	0,09955
18350,62839	0,06908	0,0926	0,09519	0,10183
18341,91708	0,07125	0,09455	0,09702	0,10398
18333,21432	0,07353	0,09655	0,09884	0,10596
18324,52009	0,07584	0,09861	0,10068	0,10778
18315,83439	0,07811	0,10073	0,10262	0,10946
18307,1572	0,08029	0,10292	0,10471	0,11109
18298,4885	0,08237	0,10517	0,10703	0,11276
18289,82829	0,08436	0,10751	0,1096	0,11459
18281,17655	0,08633	0,10993	0,11245	0,11665
18272,53327	0,08835	0,11244	0,11553	0,11902
18263,89843	0,09049	0,11505	0,1188	0,12173
18255,27204	0,09283	0,11776	0,12218	0,12475
18246,65406	0,09539	0,12057	0,1256	0,12803
18238,0445	0,09818	0,12349	0,12898	0,13151
18229,44333	0,10116	0,12652	0,1323	0,13508
18220,85055	0,10429	0,12965	0,13554	0,13866
18212,26614	0,10752	0,1329	0,1387	0,14218
18203,69009	0,11083	0,13625	0,14182	0,14562
18195,1224	0,11418	0,13971	0,14491	0,14896
18186,56304	0,1176	0,14327	0,14801	0,15223
18178,012	0,12111	0,14693	0,15114	0,15547
18169,46928	0,12471	0,15069	0,15432	0,15874
18160,93485	0,12844	0,15456	0,15756	0,16207
18152,40872	0,13229	0,15852	0,1609	0,16552
18143,89086	0,13625	0,16258	0,16436	0,1691
18135,38127	0,14027	0,16675	0,16801	0,17282
18126,87993	0,14434	0,17101	0,17189	0,1767
18118,38683	0,14841	0,17539	0,17606	0,18073
18109,90195	0,15249	0,17987	0,18057	0,18493
18101,4253	0,15659	0,18446	0,18541	0,18929
18092,95685	0,16076	0,18917	0,19057	0,19384
18084,49659	0,16505	0,194	0,196	0,1986
18076,04451	0,16955	0,19897	0,20161	0,20357
18067,6006	0,17429	0,20406	0,20733	0,20875
18059,16485	0,17933	0,2093	0,21305	0,21412
18050,73724	0,18466	0,21468	0,21874	0,21965
18042,31777	0,19029	0,22021	0,22438	0,22531
18033,90642	0,19617	0,22589	0,22998	0,23107
18025,50317	0,20227	0,23173	0,23559	0,23692
18017,10803	0,20854	0,23773	0,2413	0,24286
18008,72097	0,21497	0,2439	0,24719	0,24891
18000,34199	0,22153	0,25023	0,25331	0,25512
17991,97107	0,22823	0,25674	0,25971	0,26151
17983,60821	0,23505	0,26341	0,26639	0,26812
17975,25338	0,242	0,27025	0,27331	0,27495
17966,90658	0,24907	0,27727	0,28043	0,28201
17958,5678	0,25625	0,28446	0,28769	0,28926
17950,23702	0,26351	0,29183	0,29504	0,29664
17941,91424	0,27086	0,29937	0,30244	0,30411
17933,59944	0,27828	0,30708	0,30987	0,31162
17925,29261	0,2858	0,31496	0,31736	0,31915
17916,99374	0,29346	0,32302	0,32494	0,32671
17908,70282	0,3013	0,33124	0,33267	0,3343
17900,41983	0,30939	0,33963	0,34058	0,34198
17892,14477	0,31776	0,34818	0,34874	0,34977
17883,87763	0,32646	0,3569	0,35717	0,3577
17875,61838	0,33549	0,36576	0,36588	0,36581
17867,36703	0,34481	0,37478	0,37486	0,37409
17859,12356	0,35439	0,38394	0,38409	0,38254
17850,88795	0,36416	0,39325	0,39352	0,39115
17842,66021	0,37406	0,40268	0,40311	0,39992
17834,4403	0,38405	0,41225	0,41281	0,40887
17826,22824	0,3941	0,42194	0,42258	0,41803
17818,024	0,40421	0,43175	0,43239	0,42744
17809,82757	0,41439	0,44168	0,44226	0,43715
17801,63894	0,42468	0,45173	0,45219	0,44719
17793,4581	0,43511	0,46188	0,46222	0,45757
17785,28504	0,44571	0,47214	0,4724	0,46827
17777,11975	0,4565	0,48251	0,48278	0,47923
17768,96222	0,46747	0,49299	0,49338	0,49037
17760,81244	0,47863	0,50357	0,50419	0,50158
17752,67038	0,48995	0,51426	0,51521	0,51277
17744,53606	0,50144	0,52505	0,52636	0,52384
17736,40944	0,51309	0,53595	0,53756	0,53472
17728,29053	0,5249	0,54695	0,54873	0,5454
17720,17931	0,53687	0,55804	0,55978	0,55586
17712,07576	0,54901	0,56923	0,57068	0,56614
17703,97989	0,56131	0,58051	0,5814	0,57631
17695,89168	0,57373	0,59186	0,59198	0,58643
17687,81111	0,58623	0,60328	0,60249	0,59658
17679,73818	0,59876	0,61475	0,613	0,60684
17671,67288	0,61126	0,62627	0,62362	0,61727
17663,61519	0,62367	0,63782	0,63439	0,62792
17655,56511	0,63597	0,64937	0,64537	0,63884
17647,52262	0,64815	0,66092	0,65655	0,65003
17639,48771	0,66022	0,67244	0,66789	0,66147
17631,46038	0,67223	0,68392	0,67932	0,67315
17623,4406	0,68423	0,69533	0,69077	0,685
17615,42838	0,69624	0,70667	0,70214	0,69695
17607,4237	0,70829	0,71791	0,71339	0,70892
17599,42655	0,72037	0,72903	0,72447	0,7208
17591,43691	0,73241	0,74003	0,73536	0,73252
17583,45479	0,74433	0,75089	0,74607	0,74397
17575,48016	0,75603	0,7616	0,75659	0,7551
17567,51302	0,76739	0,77215	0,76692	0,76584
17559,55336	0,77832	0,78253	0,77707	0,77618
17551,60116	0,78878	0,79273	0,78702	0,78612
17543,65642	0,79875	0,80276	0,79676	0,79568
17535,71912	0,80828	0,8126	0,80628	0,80493
17527,78926	0,81748	0,82225	0,81559	0,81394
17519,86682	0,82647	0,8317	0,8247	0,8228
17511,9518	0,8354	0,84095	0,83366	0,8316
17504,04418	0,84439	0,85	0,84251	0,84041
17496,14395	0,85354	0,85883	0,85129	0,8493
17488,25111	0,86287	0,86745	0,86002	0,85828
17480,36564	0,87237	0,87584	0,86872	0,86733
17472,48753	0,88195	0,884	0,87736	0,8764
17464,61677	0,89147	0,89193	0,88589	0,88537
17456,75336	0,90079	0,8996	0,89426	0,89414
17448,89727	0,90977	0,90702	0,90237	0,90257
17441,04851	0,91827	0,91418	0,91016	0,91055
17433,20706	0,92623	0,92107	0,91758	0,918
17425,37291	0,93361	0,92768	0,92457	0,92488
17417,54605	0,94044	0,93401	0,93115	0,9312
17409,72646	0,94678	0,94006	0,93732	0,93699
17401,91415	0,9527	0,94582	0,94311	0,94235
17394,1091	0,95827	0,9513	0,94858	0,94736
17386,3113	0,96354	0,95648	0,95375	0,9521
17378,52074	0,96852	0,96136	0,95866	0,95664
17370,73741	0,97321	0,96596	0,96332	0,96102
17362,9613	0,97756	0,97027	0,96774	0,96526
17355,1924	0,98152	0,9743	0,97188	0,96934
17347,4307	0,98504	0,97803	0,97574	0,97324
17339,67619	0,9881	0,98148	0,97929	0,97691
17331,92885	0,9907	0,98463	0,9825	0,98031
17324,18869	0,99286	0,98751	0,98537	0,98342
17316,45569	0,99465	0,99009	0,98792	0,9862
17308,72984	0,99613	0,99238	0,99015	0,98865
17301,01112	0,99735	0,99437	0,99211	0,99076
17293,29954	0,99835	0,99607	0,99383	0,99255
17285,59508	0,99914	0,99747	0,99534	0,99405
17277,89773	0,99971	0,99856	0,99666	0,99529
17270,20748	1	0,99935	0,99779	0,99633
17262,52432	0,99996	0,99983	0,99872	0,99722
17254,84824	0,99954	1	0,99943	0,99799
17247,17923	0,99869	0,99986	0,99986	0,99868
17239,51728	0,99739	0,99942	1	0,99928
17231,86239	0,99566	0,99867	0,99981	0,99975
17224,21453	0,99352	0,99764	0,99928	1
17216,57371	0,99103	0,99631	0,99843	0,99993
17208,93991	0,98825	0,99471	0,99726	0,99944
17201,31313	0,98524	0,99284	0,99581	0,99842
17193,69335	0,98203	0,99071	0,9941	0,9968
17186,08056	0,97868	0,98835	0,99214	0,99459
17178,47475	0,9752	0,98575	0,98994	0,99184
17170,87592	0,9716	0,98294	0,98746	0,98866
17163,28406	0,96785	0,97992	0,98466	0,98521
17155,69915	0,96395	0,9767	0,98149	0,98166
17148,12118	0,95987	0,9733	0,97792	0,97813
17140,55016	0,95557	0,96972	0,97394	0,97474
17132,98606	0,95103	0,96596	0,96956	0,9715
17125,42887	0,94623	0,96204	0,96484	0,96839
17117,87859	0,94114	0,95794	0,95988	0,96529
17110,33522	0,93576	0,95368	0,95482	0,96209
17102,79873	0,93012	0,94926	0,94978	0,95865
17095,26912	0,92424	0,94467	0,94488	0,95487
17087,74638	0,91815	0,93991	0,9402	0,9507
17080,2305	0,91191	0,93499	0,93576	0,94615
17072,72147	0,90556	0,92991	0,93154	0,94128
17065,21928	0,89915	0,92466	0,92744	0,93622
17057,72393	0,89271	0,91925	0,9233	0,93108
17050,2354	0,88627	0,91369	0,91898	0,92598
17042,75368	0,87982	0,90799	0,91432	0,921
17035,27877	0,87337	0,90215	0,9092	0,91615
17027,81065	0,86691	0,89618	0,90357	0,9114
17020,34932	0,86044	0,8901	0,89746	0,90665
17012,89477	0,85396	0,88393	0,89096	0,90178
17005,44699	0,84746	0,87766	0,88423	0,89666
16998,00596	0,84095	0,87133	0,87744	0,89116
16990,57168	0,8344	0,86495	0,87076	0,88522
16983,14414	0,82781	0,85852	0,86431	0,8788
16975,72333	0,82115	0,85206	0,85815	0,87195
16968,30925	0,81441	0,84558	0,85222	0,86475
16960,90188	0,80755	0,83909	0,84643	0,85734
16953,50121	0,80056	0,83259	0,84061	0,84986
16946,10723	0,79347	0,82609	0,8346	0,84247
16938,71994	0,78628	0,81959	0,82827	0,83529
16931,33933	0,77904	0,8131	0,82153	0,8284
16923,96538	0,77182	0,80659	0,8144	0,82184
16916,5981	0,76465	0,80008	0,80697	0,81558
16909,23746	0,75757	0,79357	0,7994	0,80955
16901,88346	0,7506	0,78703	0,79188	0,80363
16894,53609	0,74372	0,78047	0,78456	0,79772
16887,19535	0,73688	0,77389	0,77758	0,79168
16879,86122	0,73005	0,76728	0,77097	0,78544
16872,53369	0,72316	0,76063	0,76468	0,77896
16865,21276	0,71618	0,75396	0,75863	0,77223
16857,89842	0,70911	0,74725	0,75266	0,76531
16850,59065	0,70195	0,74052	0,74666	0,75828
16843,28946	0,69475	0,73376	0,74054	0,75123
16835,99482	0,68754	0,72699	0,73425	0,74425
16828,70673	0,68035	0,72021	0,72781	0,7374
16821,42519	0,67319	0,71342	0,72128	0,73074
16814,15018	0,66606	0,70665	0,71472	0,72424
16806,88169	0,65891	0,6999	0,70817	0,71788
16799,61973	0,65171	0,69317	0,70164	0,71159
16792,36427	0,64442	0,68648	0,69508	0,70531
16785,1153	0,63705	0,67984	0,68841	0,69898
16777,87283	0,6296	0,67325	0,68157	0,69256
16770,63684	0,62216	0,66671	0,67453	0,68606
16763,40732	0,61481	0,66024	0,66731	0,67949
16756,18426	0,60765	0,65383	0,66001	0,67291
16748,96766	0,60076	0,64748	0,65279	0,66639
16741,75751	0,59419	0,6412	0,64585	0,65998
16734,5538	0,58793	0,63498	0,63936	0,65373
16727,35651	0,58193	0,62881	0,63343	0,64766
16720,16564	0,57612	0,62271	0,62806	0,64176
16712,98119	0,5704	0,61666	0,62314	0,63599
16705,80314	0,56468	0,61066	0,61847	0,6303
16698,63149	0,55892	0,6047	0,61379	0,62462
16691,46622	0,5531	0,59879	0,60883	0,6189
16684,30733	0,54726	0,59292	0,60342	0,6131
16677,15481	0,54145	0,5871	0,59747	0,60723
16670,00865	0,53573	0,58131	0,59104	0,60131
16662,86884	0,53016	0,57556	0,58429	0,59539
16655,73538	0,52475	0,56986	0,57747	0,58953
16648,60825	0,51947	0,56419	0,57083	0,58379
16641,48745	0,51428	0,55858	0,56459	0,57822
16634,37297	0,50909	0,553	0,55886	0,57285
16627,2648	0,50384	0,54748	0,55365	0,56768
16620,16293	0,49849	0,54201	0,54884	0,56267
16613,06735	0,49304	0,5366	0,54424	0,55777
16605,97806	0,48751	0,53124	0,53964	0,55293
16598,89505	0,48198	0,52594	0,53485	0,54808
16591,8183	0,47654	0,52071	0,52977	0,54318
16584,74782	0,47125	0,51555	0,52439	0,53821
16577,68359	0,46618	0,51045	0,51881	0,53315
16570,6256	0,46133	0,50543	0,51318	0,52802
16563,57384	0,45668	0,50048	0,50768	0,52283
16556,52832	0,45219	0,49561	0,50246	0,51763
16549,48901	0,44781	0,49082	0,49762	0,51244
16542,45591	0,44348	0,48611	0,49315	0,5073
16535,42902	0,43917	0,48148	0,48898	0,50224
16528,40832	0,43488	0,47694	0,48495	0,49726
16521,39381	0,43064	0,47248	0,4809	0,49241
16514,38547	0,42648	0,46811	0,47668	0,48769
16507,38331	0,42246	0,46382	0,47218	0,48311
16500,3873	0,41859	0,45963	0,46739	0,47868
16493,39745	0,41489	0,45551	0,46236	0,47439
16486,41375	0,41134	0,45148	0,45723	0,47021
16479,43618	0,4079	0,44753	0,45216	0,46612
16472,46474	0,40452	0,44365	0,44732	0,46207
16465,49942	0,40115	0,43985	0,44287	0,45805
16458,54022	0,39774	0,43612	0,4389	0,45402
16451,58712	0,39427	0,43245	0,43542	0,45
16444,64012	0,39074	0,42884	0,43238	0,44602
16437,6992	0,38718	0,4253	0,42967	0,44213
16430,76437	0,38359	0,4218	0,42712	0,43838
16423,83561	0,38004	0,41835	0,42458	0,43484
16416,91292	0,37653	0,41496	0,42189	0,43153
16409,99629	0,37309	0,41161	0,41892	0,42846
16403,0857	0,36973	0,4083	0,41564	0,42557
16396,18115	0,36645	0,40504	0,41203	0,42281
16389,28264	0,36326	0,40184	0,40816	0,42008
16382,39016	0,36013	0,39868	0,40415	0,41727
16375,50369	0,35708	0,39557	0,40013	0,41433
16368,62323	0,35409	0,39251	0,39625	0,41121
16361,74877	0,35119	0,38951	0,39263	0,40792
16354,88031	0,34836	0,38657	0,38937	0,40452
16348,01783	0,34564	0,38369	0,38648	0,40107
16341,16133	0,34302	0,38087	0,38396	0,39766
16334,3108	0,34051	0,3781	0,38172	0,39437
16327,46624	0,33812	0,3754	0,37965	0,39124
16320,62763	0,33584	0,37275	0,37762	0,38826
16313,79497	0,33365	0,37015	0,37553	0,38543
16306,96825	0,33154	0,3676	0,37327	0,38269
16300,14745	0,32948	0,36509	0,37079	0,37999
16293,33259	0,32745	0,36262	0,36809	0,37731
16286,52364	0,32544	0,36018	0,36519	0,37464
16279,7206	0,32345	0,35778	0,36217	0,37199
16272,92345	0,32148	0,3554	0,3591	0,3694
16266,13221	0,31954	0,35304	0,35608	0,36692
16259,34685	0,31766	0,3507	0,35318	0,36458
16252,56736	0,31585	0,34837	0,35045	0,36239
16245,79375	0,31413	0,34607	0,3479	0,36032
16239,026	0,31249	0,34378	0,34555	0,35834
16232,2641	0,31091	0,34152	0,34336	0,35639
16225,50806	0,30934	0,33927	0,34131	0,3544
16218,75785	0,30773	0,33706	0,33934	0,35235
16212,01347	0,30603	0,33487	0,33744	0,35021
16205,27493	0,30418	0,33271	0,33557	0,348
16198,54219	0,30215	0,33059	0,33372	0,34574
16191,81527	0,29997	0,32851	0,33189	0,34347
16185,09415	0,29767	0,32646	0,33007	0,34121
16178,37882	0,29533	0,32445	0,32828	0,33898
16171,66929	0,29304	0,32247	0,32652	0,33676
16164,96553	0,29089	0,32052	0,32479	0,33451
16158,26754	0,28898	0,31861	0,32309	0,33223
16151,57532	0,28736	0,31672	0,32141	0,32989
16144,88886	0,28604	0,31485	0,31971	0,3275
16138,20815	0,285	0,31299	0,31798	0,32511
16131,53318	0,28419	0,31115	0,31617	0,32279
16124,86394	0,28351	0,30931	0,31425	0,32063
16118,20044	0,28289	0,30747	0,31219	0,31869
16111,54265	0,28223	0,30564	0,30997	0,31701
16104,89058	0,28146	0,30381	0,30761	0,31559
16098,24421	0,28051	0,30199	0,30514	0,31438
16091,60355	0,27936	0,30016	0,30261	0,31326
16084,96857	0,27799	0,29835	0,3001	0,31211
16078,33928	0,27642	0,29654	0,29769	0,31079
16071,71566	0,27465	0,29475	0,29548	0,30921
16065,09771	0,27274	0,29298	0,29355	0,3073
16058,48543	0,27074	0,29124	0,29194	0,30508
16051,8788	0,2687	0,28952	0,29066	0,30263
16045,27782	0,26669	0,28784	0,28969	0,30006
16038,68248	0,26479	0,28619	0,28896	0,29752
16032,09277	0,26304	0,28458	0,28835	0,29516
16025,50869	0,26151	0,283	0,28774	0,29309
16018,93022	0,2602	0,28145	0,28701	0,29135
16012,35737	0,2591	0,27992	0,28605	0,28995
16005,79012	0,25818	0,27842	0,28479	0,28881
15999,22847	0,25736	0,27693	0,28322	0,28782
15992,67241	0,25657	0,27546	0,28136	0,28683
15986,12194	0,25571	0,27399	0,27928	0,28571
15979,57703	0,25471	0,27251	0,2771	0,28433
15973,0377	0,25354	0,27102	0,27494	0,28263
15966,50393	0,25215	0,26952	0,27289	0,2806
15959,97572	0,25059	0,26801	0,27106	0,2783
15953,45305	0,24887	0,26647	0,26947	0,27583
15946,93592	0,24708	0,26491	0,26813	0,27332
15940,42432	0,24527	0,26333	0,26701	0,27092
15933,91826	0,2435	0,26174	0,26604	0,26874
15927,41771	0,24182	0,26012	0,26514	0,26686
15920,92267	0,24027	0,2585	0,26423	0,2653
15914,43314	0,23883	0,25686	0,26324	0,26401
15907,9491	0,2375	0,25522	0,26214	0,2629
15901,47056	0,23624	0,25358	0,26088	0,26184
15894,99751	0,23502	0,25193	0,25947	0,26072
15888,52993	0,2338	0,25029	0,25791	0,25943
15882,06782	0,23255	0,24865	0,25618	0,25793
15875,61117	0,23124	0,24702	0,2543	0,25621
15869,15998	0,22986	0,24539	0,25228	0,25434
15862,71424	0,22842	0,24376	0,25014	0,2524
15856,27394	0,22693	0,24213	0,24789	0,2505
15849,83908	0,2254	0,24049	0,24561	0,24871
15843,40965	0,22386	0,23885	0,24336	0,24708
15836,98564	0,22233	0,2372	0,24121	0,24559
15830,56705	0,22082	0,23554	0,23924	0,24417
15824,15386	0,21935	0,23386	0,23752	0,24274
15817,74608	0,2179	0,23218	0,23607	0,2412
15811,34369	0,21646	0,23049	0,23486	0,23948
15804,94669	0,21501	0,22879	0,23383	0,23757
15798,55507	0,21351	0,22708	0,23287	0,23549
15792,16883	0,21195	0,22537	0,23186	0,23334
15785,78795	0,21031	0,22366	0,2307	0,23124
15779,41243	0,2086	0,22195	0,22932	0,2293
15773,04227	0,20683	0,22026	0,22769	0,2276
15766,67746	0,20503	0,21857	0,22587	0,22617
15760,31798	0,20325	0,2169	0,22394	0,22499
15753,96384	0,20152	0,21523	0,22201	0,22394
15747,61503	0,19987	0,21358	0,22018	0,22292
15741,27154	0,19831	0,21195	0,21854	0,22179
15734,93336	0,19685	0,21032	0,2171	0,22046
15728,60049	0,19547	0,20869	0,21581	0,21887
15722,27292	0,19415	0,20707	0,21457	0,21703
15715,95065	0,19285	0,20544	0,21326	0,21502
15709,63366	0,19156	0,20381	0,21176	0,21291
15703,32195	0,19027	0,20216	0,21001	0,21081
15697,01552	0,18898	0,2005	0,20797	0,2088
15690,71435	0,1877	0,19882	0,20572	0,20692
15684,41845	0,18643	0,19712	0,20335	0,20518
15678,1278	0,18519	0,19542	0,201	0,20356
15671,84239	0,18396	0,1937	0,1988	0,20202
15665,56223	0,18272	0,19197	0,19681	0,20053
15659,28731	0,18144	0,19024	0,19505	0,19908
15653,01761	0,18008	0,18853	0,19347	0,19766
15646,75313	0,17859	0,18683	0,19194	0,1963
15640,49387	0,17695	0,18516	0,19034	0,19502
15634,23982	0,17515	0,18352	0,18855	0,19383
15627,99097	0,17322	0,18192	0,18652	0,19269
15621,74731	0,1712	0,18037	0,18427	0,19156
15615,50885	0,16916	0,17887	0,18189	0,19035
15609,27556	0,16717	0,17743	0,17955	0,18897
15603,04746	0,1653	0,17604	0,17742	0,18737
15596,82452	0,16359	0,17471	0,17562	0,18553
15590,60675	0,16205	0,17342	0,17424	0,18348
15584,39413	0,16064	0,17218	0,17326	0,1813
15578,18667	0,15933	0,17096	0,17259	0,17912
15571,98435	0,15804	0,16977	0,17204	0,17707
15565,78716	0,1567	0,16858	0,17143	0,17527
15559,59511	0,15525	0,16739	0,1706	0,17379
15553,40818	0,15366	0,16619	0,16943	0,17263
15547,22637	0,15195	0,16497	0,16791	0,17175
15541,04968	0,15014	0,16371	0,16612	0,17105
15534,87809	0,1483	0,16242	0,1642	0,17041
15528,7116	0,14649	0,16108	0,16232	0,16972
15522,5502	0,14479	0,15969	0,16065	0,16892
15516,39389	0,14322	0,15826	0,15928	0,16796
15510,24266	0,14182	0,15679	0,15824	0,16688
15504,09651	0,14055	0,15528	0,15747	0,16572
15497,95542	0,13938	0,15374	0,15685	0,16453
15491,8194	0,13825	0,15217	0,15622	0,16335
15485,68843	0,13712	0,1506	0,15542	0,16219
15479,56251	0,13594	0,14902	0,15434	0,16102
15473,44164	0,13471	0,14745	0,15294	0,15977
15467,3258	0,13342	0,1459	0,15123	0,15838
15461,21499	0,13211	0,14437	0,14929	0,15679
15455,10921	0,13081	0,14288	0,14723	0,15499
15449,00845	0,12955	0,14143	0,14518	0,153
15442,91269	0,12836	0,14001	0,14322	0,15091
15436,82195	0,12722	0,13865	0,14141	0,1488
15430,7362	0,12612	0,13732	0,13976	0,14679
15424,65545	0,12502	0,13604	0,13824	0,14495
15418,57969	0,12389	0,13479	0,13681	0,14331
15412,5089	0,12271	0,13358	0,1354	0,14185
15406,4431	0,12146	0,1324	0,13399	0,1405
15400,38226	0,12016	0,13124	0,13254	0,13916
15394,32638	0,11885	0,1301	0,13107	0,13774
15388,27547	0,11756	0,12897	0,1296	0,13615
15382,2295	0,11634	0,12785	0,12818	0,13439
15376,18848	0,11521	0,12673	0,12685	0,1325
15370,1524	0,11419	0,12561	0,12564	0,13059
15364,12125	0,11327	0,12449	0,12456	0,12878
15358,09503	0,1124	0,12337	0,12363	0,1272
15352,07373	0,11155	0,12224	0,12281	0,12596
15346,05734	0,11068	0,12111	0,12208	0,12508
15340,04586	0,10975	0,11997	0,12141	0,12454
15334,03929	0,10877	0,11883	0,12074	0,12424
15328,03761	0,10773	0,11768	0,12003	0,12403
15322,04082	0,10665	0,11653	0,11923	0,12376
15316,04892	0,10555	0,11538	0,11831	0,1233
15310,06189	0,10443	0,11422	0,11723	0,12255
15304,07974	0,10327	0,11306	0,11598	0,12146
15298,10246	0,10205	0,1119	0,11458	0,12007
15292,13004	0,10073	0,11073	0,11305	0,11842
15286,16247	0,09928	0,10956	0,11143	0,11661
15280,19975	0,09767	0,10838	0,10978	0,11472
15274,24188	0,09593	0,10719	0,10815	0,11282
15268,28884	0,09408	0,106	0,10659	0,11095
15262,34064	0,09222	0,1048	0,10511	0,10914
15256,39726	0,09045	0,10359	0,10372	0,1074
15250,4587	0,08886	0,10237	0,10241	0,10575
15244,52495	0,08755	0,10116	0,10117	0,10421
15238,59601	0,08657	0,09994	0,09997	0,10283
15232,67188	0,08591	0,09873	0,09881	0,10165
15226,75254	0,08552	0,09752	0,09772	0,10074
15220,83799	0,08532	0,09633	0,09673	0,10011
15214,92823	0,08519	0,09516	0,09587	0,09977
15209,02324	0,08501	0,094	0,09519	0,09966
15203,12303	0,08468	0,09287	0,0947	0,09969
15197,22759	0,08414	0,09177	0,09438	0,09973
15191,33691	0,08337	0,09069	0,0942	0,09966
15185,45098	0,08239	0,08965	0,09407	0,09937
15179,56981	0,08125	0,08863	0,0939	0,09879
15173,69338	0,08004	0,08763	0,09359	0,09789
15167,82168	0,07883	0,08666	0,09308	0,09673
15161,95472	0,07768	0,08571	0,09233	0,09539
15156,09249	0,07665	0,08477	0,09135	0,09396
15150,23498	0,07574	0,08384	0,09017	0,09256
15144,38219	0,07497	0,08291	0,08888	0,09125
15138,5341	0,07431	0,08198	0,08753	0,09006
15132,69072	0,07371	0,08105	0,08621	0,089
15126,85204	0,07315	0,0801	0,08494	0,08802
15121,01806	0,07258	0,07915	0,08375	0,08707
15115,18876	0,07198	0,07819	0,08263	0,0861
15109,36414	0,07132	0,07721	0,08154	0,08507
15103,5442	0,0706	0,07624	0,08049	0,08398
15097,72893	0,06982	0,07527	0,07946	0,08285
15091,91832	0,06899	0,0743	0,07848	0,08173
15086,11238	0,06814	0,07335	0,07759	0,08066
15080,31108	0,06731	0,07242	0,07685	0,07967
15074,51444	0,06652	0,07152	0,07629	0,0788
15068,72244	0,06581	0,07066	0,07594	0,07805
15062,93507	0,06521	0,06984	0,07578	0,07739
15057,15234	0,06472	0,06907	0,07575	0,07681
15051,37423	0,06431	0,06835	0,07574	0,07628
15045,60075	0,06396	0,06768	0,07565	0,07578
15039,83188	0,06361	0,06706	0,07537	0,07532
15034,06761	0,06319	0,06649	0,07482	0,07488
15028,30796	0,06265	0,06596	0,07397	0,07448
15022,5529	0,06194	0,06547	0,07282	0,0741
15016,80243	0,06107	0,065	0,07146	0,07373
15011,05655	0,06004	0,06455	0,06998	0,07333
15005,31525	0,05891	0,06412	0,06851	0,07286
14999,57853	0,05777	0,06368	0,06717	0,07228
14993,84638	0,05668	0,06324	0,06603	0,07157
14988,1188	0,05574	0,06279	0,06514	0,07072
14982,39578	0,055	0,06232	0,06449	0,06976
14976,67731	0,05448	0,06184	0,06404	0,06874
14970,96339	0,05417	0,06133	0,06372	0,06772
14965,25401	0,054	0,06081	0,06345	0,06675
14959,54917	0,05391	0,06027	0,06316	0,06588
14953,84887	0,0538	0,05972	0,06278	0,06513
14948,15309	0,05359	0,05918	0,06229	0,06449
14942,46183	0,05323	0,05863	0,0617	0,06394
14936,7751	0,05269	0,0581	0,06103	0,06342
14931,09287	0,05199	0,05758	0,06031	0,0629
14925,41515	0,05117	0,05709	0,05958	0,06235
14919,74193	0,0503	0,05662	0,05888	0,06174
14914,0732	0,04946	0,05618	0,05823	0,06109
14908,40897	0,04871	0,05576	0,05764	0,0604
14902,74922	0,0481	0,05536	0,0571	0,05972
14897,09395	0,04765	0,05497	0,05659	0,05905
14891,44315	0,04735	0,0546	0,05609	0,05842
14885,79683	0,04717	0,05422	0,05558	0,05783
14880,15496	0,04706	0,05383	0,05505	0,05727
14874,51756	0,04696	0,05343	0,05449	0,05674
14868,88461	0,04684	0,05299	0,05391	0,05622
14863,2561	0,04665	0,05252	0,05334	0,05571
14857,63204	0,04639	0,05201	0,05278	0,05522
14852,01241	0,04607	0,05145	0,05228	0,05475
14846,39722	0,0457	0,05084	0,05183	0,0543
14840,78645	0,04531	0,05019	0,05145	0,05387
14835,18011	0,0449	0,04949	0,05113	0,05343
14829,57818	0,04448	0,04876	0,05084	0,05295
14823,98066	0,04404	0,04801	0,05057	0,05239
14818,38755	0,04356	0,04725	0,05029	0,05172
14812,79884	0,04301	0,04649	0,04996	0,05092
14807,21452	0,04237	0,04575	0,04958	0,05001
14801,6346	0,04164	0,04503	0,04914	0,04901
14796,05906	0,04083	0,04436	0,04866	0,048
14790,4879	0,03997	0,04374	0,04814	0,04704
14784,92111	0,0391	0,04318	0,04761	0,0462
14779,3587	0,03829	0,0427	0,04708	0,04554
14773,80065	0,03759	0,04228	0,04656	0,04506
14768,24695	0,03704	0,04194	0,04605	0,04476
14762,69762	0,03665	0,04166	0,04552	0,04458
14757,15263	0,03643	0,04145	0,04497	0,04446
14751,61198	0,03636	0,0413	0,04438	0,04433
14746,07568	0,03638	0,04119	0,04373	0,04414
14740,54371	0,03646	0,04111	0,04305	0,04387
14735,01606	0,03654	0,04105	0,04234	0,04353
14729,49275	0,03657	0,041	0,04166	0,04317
14723,97375	0,03654	0,04095	0,04103	0,04284
14718,45906	0,03644	0,04088	0,04051	0,04261
14712,94868	0,03628	0,04078	0,0401	0,04252
14707,44261	0,03607	0,04065	0,03983	0,04259
14701,94083	0,03582	0,04048	0,03968	0,0428
14696,44335	0,03556	0,04026	0,03962	0,04313
14690,95015	0,03529	0,04001	0,03962	0,04352
14685,46124	0,03502	0,03971	0,03962	0,0439
14679,97661	0,03473	0,03938	0,0396	0,04424
14674,49625	0,03442	0,03901	0,03952	0,04449
14669,02016	0,03407	0,03861	0,03937	0,04463
14663,54834	0,03368	0,0382	0,03915	0,04467
14658,08077	0,03326	0,03777	0,03886	0,04462
14652,61745	0,03281	0,03733	0,03852	0,04448
14647,15839	0,03234	0,0369	0,03813	0,04425
14641,70356	0,03188	0,03647	0,03772	0,04393
14636,25298	0,03146	0,03605	0,03728	0,0435
14630,80663	0,03108	0,03565	0,03682	0,04296
14625,36451	0,03076	0,03527	0,03633	0,0423
14619,92661	0,03052	0,03491	0,03583	0,04153
14614,49293	0,03036	0,03458	0,03531	0,04067
14609,06347	0,03028	0,03426	0,03479	0,03978
14603,63821	0,03028	0,03397	0,03426	0,03889
14598,21716	0,03034	0,03369	0,03374	0,03805
14592,80031	0,03045	0,03343	0,03323	0,03731
14587,38766	0,0306	0,03319	0,03274	0,03667
14581,97919	0,03076	0,03296	0,03227	0,03615
14576,57491	0,0309	0,03274	0,03182	0,0357
14571,17481	0,031	0,03252	0,03141	0,0353
14565,77888	0,03103	0,03231	0,03103	0,0349
14560,38712	0,03097	0,03209	0,0307	0,03448
14554,99953	0,03081	0,03188	0,03042	0,03401
14549,6161	0,03053	0,03165	0,0302	0,03349
14544,23683	0,03015	0,03143	0,03005	0,03295
14538,8617	0,02969	0,03119	0,02994	0,03242
14533,49073	0,02918	0,03094	0,02986	0,03193
14528,12389	0,02865	0,03069	0,0298	0,03152
14522,76119	0,02816	0,03042	0,02973	0,03121
14517,40262	0,02773	0,03015	0,02964	0,03099
14512,04818	0,02739	0,02986	0,02951	0,03085
14506,69787	0,02716	0,02957	0,02935	0,03076
14501,35167	0,02702	0,02928	0,02916	0,03068
14496,00958	0,02696	0,02899	0,02897	0,03057
14490,6716	0,02694	0,02869	0,02878	0,0304
14485,33773	0,02693	0,0284	0,02861	0,03015
14480,00795	0,02688	0,02812	0,02846	0,02983
14474,68227	0,02676	0,02785	0,02835	0,02944
14469,36067	0,02653	0,0276	0,02825	0,02902
14464,04317	0,0262	0,02736	0,02819	0,0286
14458,72974	0,02577	0,02714	0,02814	0,02821
14453,42038	0,02525	0,02694	0,02811	0,02788
14448,1151	0,02468	0,02676	0,0281	0,02763
14442,81388	0,0241	0,02659	0,02812	0,02746
14437,51673	0,02355	0,02645	0,02814	0,02736
14432,22363	0,02307	0,02632	0,02815	0,02733
14426,93458	0,02268	0,02621	0,02813	0,02733
14421,64958	0,02241	0,0261	0,02805	0,02736
14416,36862	0,02226	0,026	0,02788	0,02739
14411,0917	0,02223	0,02589	0,0276	0,02742
14405,81881	0,0223	0,02578	0,02722	0,02743
14400,54996	0,02244	0,02567	0,02675	0,02745
14395,28512	0,02262	0,02554	0,02624	0,02746
14390,02431	0,02281	0,02539	0,02575	0,0275
14384,76751	0,02297	0,02523	0,02534	0,02757
14379,51472	0,02307	0,02505	0,02505	0,02766
14374,26594	0,02308	0,02484	0,02491	0,02779
14369,02115	0,023	0,02462	0,02492	0,02791
14363,78037	0,02282	0,02438	0,02505	0,02802
14358,54358	0,02254	0,02412	0,02523	0,02805
14353,31077	0,0222	0,02385	0,02539	0,02798
14348,08195	0,02181	0,02357	0,02546	0,02775
14342,8571	0,02141	0,02328	0,02539	0,02736
14337,63623	0,02102	0,02299	0,02514	0,02679
14332,41933	0,02065	0,0227	0,02473	0,02607
14327,20639	0,02032	0,02241	0,02418	0,02524
14321,99742	0,02004	0,02213	0,02354	0,02437
14316,79239	0,01979	0,02186	0,02285	0,02352
14311,59133	0,01955	0,0216	0,02219	0,02278
14306,3942	0,01933	0,02135	0,02159	0,02221
14301,20102	0,0191	0,02112	0,02109	0,02183
14296,01178	0,01886	0,02089	0,02069	0,02165
14290,82647	0,01862	0,02068	0,02042	0,02164
14285,64509	0,01839	0,02048	0,02028	0,02176
14280,46764	0,01818	0,02029	0,02026	0,02192
14275,2941	0,018	0,02011	0,02036	0,02204
14270,12448	0,01787	0,01994	0,02058	0,02206
14264,95877	0,01779	0,01978	0,02091	0,02193
14259,79697	0,01775	0,01962	0,02132	0,02165
14254,63907	0,01774	0,01946	0,02177	0,02123
14249,48507	0,01775	0,01931	0,02222	0,02073
14244,33496	0,01774	0,01917	0,02262	0,02025
14239,18874	0,0177	0,01902	0,02291	0,01986
14234,0464	0,01761	0,01888	0,02305	0,01967
14228,90795	0,01748	0,01873	0,02303	0,01973
14223,77337	0,01731	0,01858	0,02283	0,02006
14218,64266	0,01712	0,01844	0,02247	0,02066
14213,51582	0,01693	0,01829	0,022	0,02145
14208,39284	0,01678	0,01813	0,02144	0,02232
14203,27372	0,01669	0,01797	0,02087	0,02317
14198,15846	0,01666	0,0178	0,02032	0,02387
14193,04704	0,01671	0,01763	0,01983	0,0243
14187,93947	0,01681	0,01744	0,01943	0,02442
14182,83574	0,01694	0,01725	0,01911	0,0242
14177,73585	0,01705	0,01705	0,01886	0,02368
14172,63979	0,01711	0,01685	0,01866	0,02296
14167,54756	0,01708	0,01663	0,01845	0,02215
14162,45915	0,01692	0,01641	0,01821	0,02136
14157,37456	0,01665	0,01619	0,01788	0,02072
14152,29379	0,01627	0,01597	0,01745	0,02029
14147,21682	0,01582	0,01576	0,01691	0,02009
14142,14367	0,01535	0,01554	0,01629	0,02012
14137,07431	0,01492	0,01534	0,01563	0,02031
14132,00876	0,01459	0,01516	0,01498	0,02058
14126,94699	0,01438	0,01499	0,01442	0,02084
14121,88902	0,01432	0,01483	0,01401	0,02102
14116,83483	0,0144	0,0147	0,0138	0,02109
14111,78443	0,0146	0,01459	0,01379	0,02103
14106,7378	0,01487	0,01451	0,01397	0,02085
14101,69494	0,01517	0,01444	0,0143	0,02059
14096,65585	0,01543	0,0144	0,01469	0,02029
14091,62053	0,01563	0,01438	0,01508	0,01999
14086,58896	0,01574	0,01438	0,01539	0,01968
14081,56116	0,01575	0,01438	0,01557	0,01937
14076,5371	0,01568	0,0144	0,01559	0,01904
14071,51679	0,01553	0,01443	0,01547	0,01868
14066,50022	0,01533	0,01445	0,01525	0,01828
14061,48739	0,0151	0,01447	0,01498	0,01784
14056,4783	0,01485	0,01448	0,01471	0,0174
14051,47294	0,0146	0,01448	0,01449	0,017
14046,4713	0,01435	0,01447	0,01436	0,01668
14041,47339	0,01409	0,01443	0,01433	0,01648
14036,47919	0,01383	0,01438	0,01438	0,01641
14031,48871	0,01356	0,0143	0,01451	0,01645
14026,50194	0,01328	0,01419	0,0147	0,01657
14021,51887	0,01298	0,01406	0,01492	0,0167
14016,53951	0,01266	0,01391	0,01519	0,01678
14011,56384	0,01231	0,01373	0,01547	0,01678
14006,59187	0,01193	0,01352	0,01577	0,01666
14001,62359	0,01153	0,0133	0,01606	0,01646
13996,65899	0,01111	0,01306	0,0163	0,01623
13991,69807	0,0107	0,01281	0,01642	0,01604
13986,74083	0,01033	0,01254	0,01638	0,01596
13981,78726	0,01004	0,01226	0,01611	0,01607
13976,83736	0,00984	0,01198	0,01557	0,01637
13971,89113	0,00979	0,0117	0,01475	0,01684
13966,94856	0,00989	0,01142	0,01368	0,01743
13962,00964	0,01014	0,01115	0,01245	0,01802
13957,07438	0,01051	0,01088	0,01116	0,0185
13952,14276	0,01095	0,01064	0,00996	0,01877
13947,21479	0,01139	0,01041	0,00898	0,01877
13942,29046	0,01178	0,0102	0,00834	0,01845
13937,36977	0,01204	0,01001	0,00813	0,01787
13932,4527	0,01213	0,00985	0,00838	0,01709
13927,53927	0,01204	0,00971	0,00906	0,01622
13922,62946	0,01177	0,0096	0,0101	0,01538
13917,72328	0,01138	0,00952	0,01138	0,01467
13912,8207	0,01092	0,00946	0,01276	0,01416
13907,92174	0,01047	0,00943	0,01408	0,01388
13903,02639	0,01011	0,00943	0,0152	0,01381
13898,13465	0,00987	0,00944	0,01602	0,01389
13893,2465	0,0098	0,00947	0,01647	0,01405
13888,36195	0,00986	0,00951	0,01654	0,01421
13883,481	0,01004	0,00956	0,01625	0,01432
13878,60363	0,01027	0,00961	0,01568	0,01434
13873,72985	0,01048	0,00966	0,01495	0,0143
13868,85964	0,0106	0,0097	0,01415	0,01423
13863,99302	0,0106	0,00973	0,01341	0,01417
13859,12996	0,01045	0,00975	0,01281	0,01419
13854,27048	0,01016	0,00974	0,01237	0,01431
13849,41456	0,00979	0,00971	0,01212	0,01454
13844,5622	0,00939	0,00966	0,01199	0,01484
13839,7134	0,00903	0,00958	0,01193	0,01514
13834,86816	0,00875	0,00948	0,01186	0,01537
13830,02646	0,00859	0,00935	0,01172	0,01543
13825,1883	0,00856	0,00921	0,01147	0,01529
13820,35369	0,00862	0,00905	0,01111	0,01491
13815,52262	0,00874	0,00888	0,01069	0,01434
13810,69508	0,00884	0,00871	0,01026	0,01364
13805,87107	0,00889	0,00853	0,00991	0,01293
13801,05059	0,00882	0,00836	0,00971	0,01231
13796,23363	0,00865	0,0082	0,0097	0,01187
13791,42018	0,00838	0,00806	0,00989	0,01167
13786,61026	0,00805	0,00794	0,01024	0,01172
13781,80384	0,00773	0,00784	0,01068	0,01196
13777,00093	0,00747	0,00777	0,01109	0,01231
13772,20152	0,00733	0,00773	0,01139	0,01265
13767,40561	0,00732	0,00772	0,01149	0,01286
13762,6132	0,00744	0,00774	0,01134	0,01287
13757,82428	0,00766	0,00778	0,01094	0,01263
13753,03884	0,00793	0,00785	0,01031	0,01214
13748,25689	0,00819	0,00793	0,00954	0,01146
13743,47842	0,00838	0,00803	0,0087	0,01067
13738,70343	0,00847	0,00813	0,00789	0,00987
13733,93191	0,00846	0,00824	0,0072	0,00915
13729,16386	0,00836	0,00833	0,00668	0,00857
13724,39927	0,0082	0,00842	0,00636	0,00818
13719,63814	0,00804	0,00848	0,00624	0,00798
13714,88048	0,00792	0,00853	0,00631	0,00794
13710,12626	0,00786	0,00854	0,00651	0,00802
13705,3755	0,00788	0,00853	0,00681	0,00818
13700,62818	0,00798	0,00848	0,00715	0,00839
13695,8843	0,00812	0,00841	0,0075	0,00862
13691,14387	0,00827	0,0083	0,00782	0,00884
13686,40686	0,00839	0,00816	0,00809	0,00906
13681,67329	0,00844	0,008	0,00833	0,00927
13676,94315	0,0084	0,00782	0,00853	0,00946
13672,21643	0,00826	0,00762	0,00872	0,00962
13667,49313	0,00805	0,00742	0,00892	0,00973
13662,77325	0,00777	0,0072	0,00914	0,00979
13658,05678	0,00748	0,00699	0,0094	0,00978
13653,34372	0,0072	0,00678	0,00969	0,0097
13648,63406	0,00696	0,00659	0,00999	0,00958
13643,92781	0,00679	0,0064	0,01027	0,00943
13639,22495	0,00669	0,00624	0,01051	0,00929
13634,52549	0,00666	0,00609	0,01067	0,0092
13629,82942	0,00667	0,00597	0,01072	0,00918
13625,13673	0,00669	0,00587	0,01064	0,00924
13620,44743	0,0067	0,00579	0,01042	0,00937
13615,76151	0,00666	0,00573	0,01008	0,00955
13611,07897	0,00656	0,00569	0,00963	0,00974
13606,39979	0,00637	0,00566	0,00908	0,00989
13601,72399	0,00612	0,00565	0,00845	0,00995
13597,05155	0,00582	0,00566	0,00777	0,0099
13592,38247	0,00551	0,00567	0,00705	0,00973
13587,71675	0,00522	0,00569	0,00633	0,00944
13583,05439	0,005	0,00572	0,00564	0,00906
13578,39537	0,00488	0,00575	0,00502	0,00865
13573,7397	0,00486	0,00579	0,00452	0,00826
13569,08738	0,00493	0,00582	0,00419	0,00793
13564,4384	0,00506	0,00586	0,00407	0,00772
13559,79275	0,00521	0,00589	0,00417	0,00762
13555,15043	0,00534	0,00592	0,00449	0,00765
13550,51145	0,0054	0,00595	0,00498	0,00777
13545,87578	0,00538	0,00597	0,00559	0,00795
13541,24345	0,00527	0,00599	0,00623	0,00814
13536,61442	0,00509	0,006	0,00682	0,0083
13531,98872	0,0049	0,00601	0,00728	0,00842
13527,36632	0,00474	0,00601	0,00759	0,00848
13522,74724	0,00468	0,00601	0,00772	0,00849
13518,13145	0,00473	0,00599	0,00772	0,00848
13513,51897	0,00493	0,00597	0,00765	0,00846
13508,90979	0,00525	0,00594	0,00757	0,00845
13504,3039	0,00566	0,0059	0,00755	0,00846
13499,70129	0,0061	0,00585	0,00761	0,00848
13495,10198	0,00648	0,00578	0,00776	0,00846
13490,50595	0,00676	0,00571	0,00796	0,0084
13485,9132	0,00688	0,00563	0,00816	0,00826
13481,32372	0,00681	0,00553	0,00827	0,00803
13476,73752	0,00656	0,00542	0,00826	0,00772
13472,15458	0,00614	0,00531	0,00807	0,00736
13467,57491	0,00563	0,00518	0,00771	0,007
13462,9985	0,00506	0,00505	0,00722	0,00668
13458,42535	0,00452	0,00492	0,00666	0,00644
13453,85546	0,00405	0,00478	0,00612	0,0063
13449,28882	0,0037	0,00463	0,00566	0,00624
13444,72542	0,00351	0,00449	0,00534	0,00625
13440,16528	0,00347	0,00435	0,00519	0,00627
13435,60837	0,00358	0,00421	0,00519	0,00626
13431,0547	0,00383	0,00407	0,00532	0,0062
13426,50426	0,00417	0,00394	0,00552	0,00609
13421,95706	0,00456	0,00382	0,00575	0,00595
13417,41308	0,00497	0,00372	0,00597	0,00581
13412,87233	0,00533	0,00362	0,00616	0,00575
13408,33479	0,00561	0,00354	0,00632	0,00578
13403,80048	0,00578	0,00348	0,00646	0,00594
13399,26937	0,00579	0,00343	0,0066	0,0062
13394,74148	0,00565	0,0034	0,00676	0,00652
13390,2168	0,00537	0,00338	0,00692	0,00683
13385,69532	0,00498	0,00339	0,00708	0,00705
13381,17704	0,00452	0,0034	0,00721	0,00714
13376,66195	0,00406	0,00344	0,00729	0,00707
13372,15006	0,00365	0,00349	0,00728	0,00689
13367,64136	0,00335	0,00354	0,00716	0,00665
13363,13585	0,00318	0,00361	0,00694	0,00645
13358,63352	0,00313	0,00368	0,00665	0,0064
13354,13436	0,00319	0,00375	0,0063	0,00654
13349,63839	0,00329	0,00383	0,00595	0,00693
13345,14559	0,00337	0,00389	0,00565	0,00752
13340,65596	0,00338	0,00396	0,00543	0,00823
13336,16949	0,00326	0,00401	0,0053	0,00896
13331,68619	0,003	0,00406	0,00527	0,00958
13327,20605	0,00262	0,00409	0,00531	0,00999
13322,72906	0,00218	0,00412	0,00538	0,01012
13318,25523	0,00173	0,00414	0,00545	0,00997
13313,78455	0,00138	0,00415	0,00545	0,00958
13309,31701	0,00119	0,00416	0,00537	0,00902
13304,85262	0,00121	0,00417	0,00518	0,00841
13300,39136	0,00145	0,00418	0,00488	0,00784
13295,93325	0,00188	0,0042	0,0045	0,00737
13291,47826	0,00245	0,00422	0,00406	0,00704
13287,02641	0,00306	0,00426	0,00362	0,00685
13282,57768	0,00364	0,0043	0,00322	0,00675
13278,13208	0,00412	0,00436	0,00293	0,0067
13273,6896	0,00445	0,00443	0,00276	0,00664
13269,25023	0,00462	0,0045	0,00276	0,00653
13264,81398	0,00464	0,00458	0,00293	0,00636
13260,38083	0,00456	0,00467	0,00327	0,00613
13255,9508	0,00442	0,00475	0,00373	0,00586
13251,52386	0,00426	0,00482	0,00429	0,0056
13247,10003	0,00411	0,00488	0,00488	0,00536
13242,6793	0,00398	0,00491	0,00546	0,00517
13238,26166	0,00387	0,00493	0,00595	0,00505
13233,84711	0,00374	0,00492	0,00631	0,00498
13229,43565	0,0036	0,00487	0,0065	0,00498
13225,02727	0,00343	0,0048	0,00649	0,00505
13220,62197	0,00322	0,0047	0,00627	0,00518
13216,21975	0,00299	0,00457	0,00587	0,00539
13211,82061	0,00278	0,00442	0,00533	0,00569
13207,42453	0,00261	0,00424	0,00469	0,00607
13203,03153	0,00251	0,00406	0,00405	0,00653
13198,64159	0,00249	0,00387	0,00345	0,00707
13194,25471	0,00255	0,00369	0,00299	0,00764
13189,87089	0,00267	0,00351	0,00269	0,00821
13185,49013	0,00281	0,00335	0,0026	0,00875
13181,11241	0,00295	0,00321	0,00271	0,0092
13176,73775	0,00303	0,0031	0,00299	0,00955
13172,36613	0,00304	0,00302	0,0034	0,00977
13167,99756	0,00297	0,00296	0,00387	0,00986
13163,63202	0,00282	0,00294	0,00434	0,00983
13159,26952	0,00262	0,00294	0,00475	0,00969
13154,91006	0,00241	0,00297	0,00506	0,00947
13150,55362	0,00223	0,00301	0,00526	0,00918
13146,20021	0,00214	0,00306	0,00534	0,00885
13141,84983	0,00214	0,00311	0,00533	0,00852
13137,50246	0,00226	0,00317	0,00526	0,0082
13133,15812	0,00248	0,00321	0,00515	0,00793
13128,81678	0,00277	0,00324	0,00503	0,00774
13124,47846	0,00309	0,00325	0,00492	0,00765
13120,14315	0,00337	0,00324	0,0048	0,00765
13115,81084	0,00357	0,00322	0,00468	0,00774
13111,48153	0,00365	0,00317	0,00456	0,00786
13107,15522	0,00358	0,00311	0,00442	0,00797
13102,83191	0,00339	0,00304	0,0043	0,00797
13098,51159	0,00309	0,00296	0,00419	0,00782
13094,19426	0,00275	0,00288	0,00415	0,00747
13089,87991	0,00244	0,0028	0,0042	0,0069
13085,56855	0,00222	0,00274	0,00437	0,00617
13081,26017	0,00215	0,0027	0,00466	0,00535
13076,95476	0,00226	0,00267	0,00507	0,00455
13072,65233	0,00253	0,00266	0,00555	0,0039
13068,35287	0,00294	0,00268	0,00605	0,0035
13064,05638	0,00341	0,00272	0,00649	0,00343
13059,76285	0,00388	0,00278	0,0068	0,0037
13055,47228	0,00426	0,00285	0,00695	0,00426
13051,18468	0,00452	0,00293	0,00691	0,00503
13046,90002	0,00461	0,00302	0,00669	0,00588
13042,61833	0,00455	0,00311	0,00635	0,00666
13038,33958	0,00436	0,00319	0,00595	0,00727
13034,06377	0,00411	0,00326	0,00557	0,00763
13029,79091	0,00384	0,00332	0,00528	0,00771
13025,52099	0,00362	0,00336	0,00513	0,00753
13021,25401	0,00348	0,00338	0,00513	0,00717
13016,98996	0,00344	0,00338	0,00524	0,00671
13012,72884	0,0035	0,00336	0,00542	0,00624
13008,47065	0,00361	0,00332	0,00559	0,00584
13004,21539	0,00376	0,00327	0,0057	0,00554
12999,96305	0,00388	0,00321	0,00569	0,00536
12995,71362	0,00394	0,00315	0,00556	0,0053
12991,46712	0,00392	0,00308	0,00531	0,00531
12987,22352	0,00381	0,00301	0,00501	0,00537
12982,98284	0,00361	0,00294	0,00471	0,00546
12978,74507	0,00333	0,00287	0,00447	0,00555
12974,51019	0,00301	0,0028	0,00433	0,00563
12970,27822	0,00267	0,00273	0,00429	0,00569
12966,04915	0,00234	0,00266	0,00433	0,00574
12961,82297	0,00205	0,00258	0,00438	0,00575
12957,59969	0,00183	0,0025	0,00439	0,00572
12953,3793	0,0017	0,0024	0,00429	0,00563
12949,16179	0,00165	0,00228	0,00405	0,00549
12944,94716	0,00169	0,00215	0,00369	0,00529
12940,73542	0,00179	0,002	0,00325	0,00504
12936,52655	0,00193	0,00184	0,00283	0,00478
12932,32056	0,00209	0,00166	0,00253	0,00452
12928,11744	0,00222	0,00147	0,00243	0,00431
12923,91718	0,0023	0,00129	0,0026	0,00414
12919,7198	0,00233	0,0011	0,00303	0,00404
12915,52527	0,0023	9,27317E-4	0,0037	0,00398
12911,33361	0,00225	7,75297E-4	0,00448	0,00397
12907,1448	0,0022	6,52236E-4	0,00527	0,00398
12902,95885	0,00219	5,65572E-4	0,00593	0,00401
12898,77575	0,00224	5,21401E-4	0,00634	0,00406
12894,5955	0,00236	5,23975E-4	0,00646	0,00415
12890,41809	0,00256	5,75305E-4	0,00625	0,00431
12886,24353	0,00282	6,74895E-4	0,00577	0,00457
12882,0718	0,00309	8,19642E-4	0,0051	0,00492
12877,90291	0,00335	0,001	0,00435	0,00535
12873,73686	0,00356	0,00122	0,00363	0,00583
12869,57363	0,00369	0,00146	0,00304	0,00629
12865,41324	0,00375	0,00171	0,00262	0,00664
12861,25567	0,00373	0,00195	0,0024	0,00683
12857,10092	0,00366	0,00219	0,00238	0,0068
12852,94899	0,00357	0,0024	0,00251	0,00653
12848,79988	0,00349	0,00257	0,00272	0,00605
12844,65358	0,00343	0,00271	0,00297	0,00543
12840,51009	0,0034	0,0028	0,00318	0,00475
12836,36941	0,00339	0,00284	0,00329	0,00411
12832,23154	0,00341	0,00284	0,00329	0,0036
12828,09646	0,00342	0,00279	0,00313	0,00327
12823,96419	0,00344	0,00271	0,00282	0,00317
12819,83472	0,00344	0,0026	0,00238	0,00327
12815,70803	0,00344	0,00248	0,00184	0,00355
12811,58414	0,00344	0,00235	0,00127	0,00395
12807,46304	0,00345	0,00223	7,415E-4	0,00439
12803,34472	0,00346	0,00213	3,1372E-4	0,00482
12799,22919	0,00346	0,00206	5,31566E-5	0,0052
12795,11643	0,00345	0,00203	0	0,00549
12791,00645	0,00341	0,00205	1,64044E-4	0,00567
12786,89925	0,00333	0,00211	5,21176E-4	0,00575
12782,79481	0,00321	0,00222	0,00102	0,00573
12778,69315	0,00304	0,00238	0,00158	0,00564
12774,59425	0,00284	0,00257	0,00212	0,0055
12770,49811	0,00265	0,0028	0,00259	0,00532
12766,40474	0,00247	0,00304	0,00293	0,00513
12762,31412	0,00235	0,0033	0,00313	0,00496
12758,22625	0,0023	0,00355	0,00322	0,00481
12754,14114	0,00231	0,00378	0,00324	0,00471
12750,05878	0,00239	0,00399	0,00324	0,00464
12745,97916	0,00251	0,00416	0,00324	0,0046
12741,90229	0,00268	0,00428	0,00328	0,00457
12737,82815	0,00286	0,00435	0,00334	0,00453
12733,75676	0,00305	0,00436	0,00339	0,00447
12729,6881	0,00325	0,00432	0,0034	0,00437
12725,62217	0,00345	0,00422	0,00333	0,00425
12721,55897	0,00364	0,00408	0,00317	0,00412
12717,4985	0,00384	0,0039	0,00292	0,004
12713,44075	0,00401	0,00368	0,00264	0,00392
12709,38573	0,00415	0,00344	0,00237	0,00388
12705,33342	0,00425	0,0032	0,00218	0,00389
12701,28383	0,00428	0,00295	0,00213	0,00393
12697,23695	0,00425	0,00272	0,00225	0,00398
12693,19279	0,00415	0,0025	0,00252	0,00402
12689,15133	0,004	0,00232	0,00291	0,00403
12685,11257	0,00383	0,00216	0,00336	0,00401
12681,07652	0,00367	0,00205	0,00382	0,00397
12677,04317	0,00354	0,00197	0,0042	0,00392
12673,01251	0,00345	0,00193	0,00448	0,0039
12668,98455	0,0034	0,00193	0,00463	0,00392
12664,95928	0,00337	0,00196	0,00466	0,00399
12660,9367	0,00335	0,00202	0,00458	0,00409
12656,91681	0,00331	0,00209	0,00443	0,00419
12652,8996	0,00323	0,00218	0,00424	0,00424
12648,88507	0,0031	0,00227	0,00404	0,0042
12644,87322	0,00294	0,00235	0,00384	0,00406
12640,86404	0,00276	0,00242	0,00367	0,00382
12636,85754	0,0026	0,00248	0,00352	0,0035
12632,85371	0,00247	0,0025	0,00342	0,00318
12628,85254	0,00241	0,0025	0,00337	0,00292
12624,85404	0,00241	0,00247	0,00338	0,00278
12620,8582	0,00246	0,0024	0,00344	0,0028
12616,86503	0,00256	0,00229	0,00356	0,00299
12612,8745	0,00266	0,00216	0,00371	0,00331
12608,88664	0,00275	0,002	0,00386	0,0037
12604,90142	0,00279	0,00181	0,00399	0,00407
12600,91885	0,00278	0,0016	0,00407	0,00433
12596,93893	0,0027	0,00138	0,0041	0,00441
12592,96166	0,00257	0,00116	0,0041	0,00427
12588,98702	0,00238	9,3151E-4	0,00408	0,0039
12585,01502	0,00216	7,16915E-4	0,0041	0,00336
12581,04566	0,0019	5,19252E-4	0,00418	0,00269
12577,07893	0,00162	3,45549E-4	0,00433	0,00198
12573,11483	0,00132	2,02102E-4	0,00456	0,00131
12569,15336	0,00103	9,42134E-5	0,00481	7,42671E-4
12565,19452	7,59068E-4	2,59603E-5	0,00502	3,24438E-4
12561,2383	5,44083E-4	0	0,00511	7,63487E-5
12557,2847	4,13419E-4	1,74259E-5	0,00502	0
12553,33371	3,93776E-4	7,76805E-5	0,00472	8,25165E-5
12549,38534	4,99377E-4	1,78532E-4	0,00421	3,03255E-4
12545,43959	7,2469E-4	3,16123E-4	0,00356	6,39572E-4
12541,49644	0,00104	4,85082E-4	0,00285	0,00107
12537,5559	0,0014	6,7872E-4	0,00219	0,00158
12533,61796	0,00172	8,89273E-4	0,0017	0,00215
12529,68263	0,00196	0,00111	0,00143	0,00276
12525,7499	0,00204	0,00133	0,00141	0,0034
12521,81976	0,00194	0,00154	0,0016	0,00404
12517,89222	0,00167	0,00173	0,00193	0,00467
12513,96727	0,00126	0,00189	0,00232	0,00523
12510,04491	7,82804E-4	0,00202	0,00265	0,00571
12506,12513	3,3552E-4	0,00212	0,00288	0,00606
12502,20794	0	0,00217	0,00297	0,00624